File: herald_visualization/XRD Plotting Scripts (Riley)/Figures/(Fe,Co,Ni,Cu)S2/250206_Run1_20-70deg_40min.csv
2Theta,Intensity
20.0084,4101.0
20.1755,4065.0
20.3426,3948.0
20.5097,3920.0
20.6768,3854.0
20.8439,3721.0
21.011,3662.0
21.1781,3595.0
21.3453,3523.0
21.5124,3501.0
21.6795,3480.0
21.8466,3336.0
22.0137,3332.0
22.1808,3269.0
22.3479,3138.0
22.515,3113.0
22.6822,3033.0
22.8493,2821.0
23.0164,3025.0
23.1835,2846.0
23.3506,2757.0
23.5177,2711.0
23.6848,2706.0
23.8519,2516.0
24.0191,2541.0
24.1862,2494.0
24.3533,2524.0
24.5204,2546.0
24.6875,2455.0
24.8546,2449.0
25.0217,2486.0
25.1888,2526.0
25.356,2491.0
25.5231,2483.0
25.6902,2467.0
25.8573,2383.0
26.0244,2353.0
26.1915,2454.0
26.3586,2463.0
26.5258,2395.0
26.6929,2391.0
26.86,2471.0
27.0271,2491.0
27.1942,2396.0
27.3613,2365.0
27.5284,2461.0
27.6955,2462.0
27.8627,2437.0
28.0298,2393.0
28.1969,2235.0
28.364,2252.0
28.5311,2281.0
28.6982,2343.0
28.8653,2308.0
29.0324,2401.0
29.1996,2568.0
29.3667,2578.0
29.5338,2444.0
29.7009,2362.0
29.868,2343.0
30.0351,2318.0
30.2022,2248.0
30.3693,2224.0
30.5365,2239.0
30.7036,2185.0
30.8707,2158.0
31.0378,2143.0
31.2049,2271.0
31.372,2315.0
31.5391,2377.0
31.7062,2644.0
31.8734,2637.0
32.0405,2527.0
32.2076,2442.0
32.3747,2341.0
32.5418,2254.0
32.7089,2391.0
32.876,2562.0
33.0431,2483.0
33.2103,2187.0
33.3774,2053.0
33.5445,2045.0
33.7116,2127.0
33.8787,2018.0
34.0458,2052.0
34.2129,2025.0
34.38,1991.0
34.5472,1945.0
34.7143,1958.0
34.8814,1902.0
35.0485,1926.0
35.2156,1975.0
35.3827,1938.0
35.5498,1928.0
35.7169,1912.0
35.8841,1899.0
36.0512,1908.0
36.2183,1919.0
36.3854,1914.0
36.5525,1839.0
36.7196,1872.0
36.8867,1970.0
37.0538,1851.0
37.221,1907.0
37.3881,1920.0
37.5552,1800.0
37.7223,1905.0
37.8894,1890.0
38.0565,1938.0
38.2236,1875.0
38.3908,1926.0
38.5579,1830.0
38.725,1868.0
38.8921,1886.0
39.0592,1937.0
39.2263,1844.0
39.3934,1876.0
39.5605,1908.0
39.7277,1891.0
39.8948,1925.0
40.0619,1849.0
40.229,1888.0
40.3961,1906.0
40.5632,1896.0
40.7303,1923.0
40.8974,1854.0
41.0646,1798.0
41.2317,1840.0
41.3988,1872.0
41.5659,1831.0
41.733,1842.0
41.9001,1954.0
42.0672,1852.0
42.2343,1863.0
42.4015,1965.0
42.5686,1958.0
42.7357,1843.0
42.9028,1894.0
43.0699,1967.0
43.237,2050.0
43.4041,1994.0
43.5712,1945.0
43.7384,2070.0
43.9055,2075.0
44.0726,1956.0
44.2397,1964.0
44.4068,2022.0
44.5739,2007.0
44.741,2037.0
44.9081,1981.0
45.0753,1934.0
45.2424,1918.0
45.4095,1920.0
45.5766,1937.0
45.7437,2051.0
45.9108,2017.0
46.0779,2018.0
46.245,1984.0
46.4122,1996.0
46.5793,2002.0
46.7464,2101.0
46.9135,2141.0
47.0806,2157.0
47.2477,2085.0
47.4148,2222.0
47.5819,2284.0
47.7491,2496.0
47.9162,2759.0
48.0833,2727.0
48.2504,2420.0
48.4175,2294.0
48.5846,2091.0
48.7517,2242.0
48.9189,2162.0
49.086,2140.0
49.2531,2123.0
49.4202,2005.0
49.5873,1974.0
49.7544,1964.0
49.9215,2092.0
50.0886,2067.0
50.2558,2013.0
50.4229,2044.0
50.59,1981.0
50.7571,2074.0
50.9242,2085.0
51.0913,2066.0
51.2584,2064.0
51.4255,2072.0
51.5927,2169.0
51.7598,2096.0
51.9269,2225.0
52.094,2190.0
52.2611,2191.0
52.4282,2329.0
52.5953,2460.0
52.7624,2550.0
52.9296,2488.0
53.0967,2389.0
53.2638,2402.0
53.4309,2371.0
53.598,2188.0
53.7651,2254.0
53.9322,2171.0
54.0993,2237.0
54.2665,2235.0
54.4336,2296.0
54.6007,2165.0
54.7678,2207.0
54.9349,2096.0
55.102,2193.0
55.2691,2182.0
55.4362,2229.0
55.6034,2062.0
55.7705,2256.0
55.9376,2216.0
56.1047,2176.0
56.2718,2154.0
56.4389,2284.0
56.606,2285.0
56.7731,2177.0
56.9403,2192.0
57.1074,2235.0
57.2745,2236.0
57.4416,2357.0
57.6087,2378.0
57.7758,2281.0
57.9429,2282.0
58.11,2226.0
58.2772,2218.0
58.4443,2380.0
58.6114,2352.0
58.7785,2498.0
58.9456,2406.0
59.1127,2431.0
59.2798,2520.0
59.447,2759.0
59.6141,2533.0
59.7812,2463.0
59.9483,2371.0
60.1154,2247.0
60.2825,2249.0
60.4496,2371.0
60.6167,2204.0
60.7839,2279.0
60.951,2166.0
61.1181,2311.0
61.2852,2202.0
61.4523,2196.0
61.6194,2320.0
61.7865,2248.0
61.9536,2232.0
62.1208,2217.0
62.2879,2216.0
62.455,2322.0
62.6221,2237.0
62.7892,2318.0
62.9563,2284.0
63.1234,2332.0
63.2905,2269.0
63.4577,2297.0
63.6248,2363.0
63.7919,2296.0
63.959,2373.0
64.1261,2226.0
64.2932,2217.0
64.4603,2418.0
64.6274,2416.0
64.7946,2283.0
64.9617,2329.0
65.1288,2329.0
65.2959,2317.0
65.463,2244.0
65.6301,2342.0
65.7972,2259.0
65.9643,2272.0
66.1315,2358.0
66.2986,2320.0
66.4657,2433.0
66.6328,2311.0
66.7999,2266.0
66.967,2392.0
67.1341,2283.0
67.3012,2362.0
67.4684,2371.0
67.6355,2352.0
67.8026,2357.0
67.9697,2375.0
68.1368,2370.0
68.3039,2341.0
68.471,2287.0
68.6381,2396.0
68.8053,2379.0
68.9724,2412.0
69.1395,2522.0
69.3066,2410.0
69.4737,2551.0
69.6408,2475.0
69.8079,2435.0
69.975,2486.0
69.9918,2518.0