File: herald_visualization/XRD Plotting Scripts (Riley)/Figures/(Fe,Co,Ni,Cu)S2/CuS.csv
2Theta (degrees),Intensity
10.8603,10.154
21.8198,1.98724
27.2251,2.03107
27.3814,16.9867
27.7807,3.5457
27.9341,24.7813
29.3893,17.4609
29.5351,56.1009
31.9059,73.8957
32.0413,100.0
32.9859,80.1966
35.1574,0.743815
35.2817,0.150515
38.9883,10.1829
39.1021,6.85816
43.2793,0.86104
43.3838,7.5727
44.4854,8.58717
47.9476,5.39259
48.044,16.5766
48.2104,74.617
48.4983,40.9297
48.5536,3.53837
49.5724,0.167206
49.8544,0.530829
51.2372,7.25863
52.9404,12.1444
53.0302,35.5683
53.5049,2.21157
53.772,0.432597
56.1608,1.80497
56.3268,2.98692
56.4691,3.82113
56.4796,0.0507007
56.5054,0.596718
56.8125,0.783425
57.3876,3.75017
57.7274,4.08456
58.229,3.01417
58.3133,2.75444
58.8979,4.26581
59.2322,23.1765
59.6553,44.5063
59.9043,25.2912
60.973,0.0496466
61.3005,0.295637
63.4492,1.41498
63.5816,0.00806678
63.8036,1.42904
63.8835,1.83348
63.9014,4.30383
66.6923,1.35283
67.0043,0.417966
67.6771,6.64754
67.9094,4.35626
69.1933,0.999672
69.6705,7.10429
69.7469,8.48967
70.2779,3.95574
70.5823,3.10245
72.3197,1.74962
74.3182,6.85579
74.6159,8.34621
75.8517,0.0469669
75.9256,0.503578
77.0994,0.024506
77.3199,1.19502
77.3624,0.140611
77.5828,2.85264
77.5917,0.0555288
77.6872,0.788765
77.9496,1.07955
78.15,0.522463
78.3697,2.88105
78.7355,2.77497
78.8035,0.0586845
79.0958,2.21233
79.4577,10.164
79.6764,3.18696
80.0406,6.02823
81.2793,0.5347
81.4968,0.0414213
81.8592,0.0100725
82.3864,0.227101
82.4588,1.01067
82.8424,1.20733
82.9706,2.86124
83.6086,2.72014
83.7367,0.526047
83.825,0.00211319
84.0251,1.27117
84.1855,0.590804
86.4416,0.0562462
86.6571,1.13427
87.0162,0.795283
88.7616,1.39476
88.9767,1.04279
89.1367,0.811354
89.3357,3.21347
89.4074,9.33963
89.4235,6.97588
89.7791,1.48022
89.8313,4.17276
89.9942,4.11426