File: herald_visualization/XRD Plotting Scripts (Riley)/Figures/(Fe,Co,Ni,Cu)S2/FeS2.csv
2Theta (degrees),Intensity
28.6496,37.7815
33.2007,93.9113
37.2552,53.6571
40.9627,44.8609
47.661,50.4334
50.75,0.670582
56.5586,100.0
59.3179,15.9211
62.0005,16.5533
64.6179,22.1474
69.6941,0.0344848
72.1684,0.807926
74.6086,0.465433
77.0206,11.1519
79.4094,13.7913
81.7797,9.11743
84.1359,4.51534
88.8226,13.5736