File: herald_visualization/XRD Plotting Scripts (Riley)/Figures/(Fe,Co,Ni,Cu)S2/S.csv
2Theta (degrees),Intensity
11.2038,8.12543
15.0714,16.8944
17.9498,2.33364
21.3398,13.5106
22.5166,100.0
25.3895,37.2007
25.9815,23.8613
27.156,11.2053
27.9208,19.223
28.6836,1.17083
30.7857,18.5064
32.4544,2.93584
33.2813,2.93467
34.0571,3.58321
35.1065,7.30493
36.0288,0.0024226
36.36,1.5421
36.8457,0.128148
38.6756,6.74374
38.945,0.404374
39.6844,0.416601
39.9103,1.77667
41.3361,3.70135
41.9005,8.435
42.3196,0.0198688
42.8121,0.0222356
43.4684,0.293941
43.6512,0.485055
44.0901,1.89341
44.4984,4.73149
45.3074,4.32762
45.9668,1.97784
46.4566,9.11594
46.7084,3.41585
47.1334,0.460859
48.0223,1.0546
48.5324,1.48905
48.9271,2.68492
49.0556,5.58089
49.9927,0.0580781
50.0926,16.9518
50.6699,9.97915
51.9256,2.50486
52.1458,5.797
52.865,0.0237885
52.9123,0.00580472
53.4344,0.0997368
54.0012,2.41922
54.3257,0.232325
54.5289,0.0568309
54.7739,1.07891
55.0647,0.394358
55.3727,6.19625
55.9282,0.467583
56.0086,0.0140962
56.1319,0.614672
56.3421,0.445544
56.5345,2.62782
57.7233,2.37457
58.1034,0.0855683
58.429,0.0408865
58.5545,0.253064
58.7392,2.0756
59.3099,0.422345
59.68,0.267704
60.2084,0.018232
60.4316,2.76514
60.7315,0.351839
61.2692,3.11746
61.5626,0.140838
61.7744,0.642955
62.2739,0.354603
63.2748,1.42641
63.3181,1.02161
63.8596,0.167386
64.1287,0.696377
64.2919,0.038602
64.5466,0.521623
65.156,0.0868613
65.4065,0.0924908
65.5161,0.795051
65.6197,0.57408
65.7037,0.14067
66.4905,0.0879093
66.6177,0.300264
66.7123,0.348753
67.115,0.313499
67.2081,1.11279
67.4333,1.20325
67.9042,0.849746
68.0621,1.76967
69.01,0.266669
69.0425,0.315118
69.4399,0.960513
69.649,0.186398
69.8109,0.886241
70.0166,1.14486
70.2362,0.955285
70.2608,0.905811
70.4182,0.838074
70.7924,3.40522
70.895,1.35364
70.9722,0.0200713
71.4844,0.971938
71.7437,0.0590928
71.8292,0.0725012
72.018,0.274998
72.2169,0.028896
72.3397,1.00572
73.0466,0.687973
73.3987,2.24484
73.7165,0.137095
73.9557,0.0259188
74.3333,0.575353
74.7892,0.00374895
75.0006,0.0120612
75.4735,0.718601
75.7528,1.42142
75.9945,0.0408793
76.1512,0.00259796
76.415,0.0338277
76.6137,0.450716
76.9357,2.38624
77.2478,0.0908295
77.752,0.415498
78.247,0.016083
78.2855,0.171172
78.4816,0.539942
78.8328,0.067425
79.4113,0.0849565
79.4923,0.086631
79.972,0.427473
80.3042,1.37332
80.521,0.170899
80.7423,0.139575
80.8974,0.260056
81.168,0.623627
81.6317,1.23951
81.7864,0.169794
81.9484,0.476408
82.0184,0.0145038
82.083,0.341404
82.4886,0.00992157
82.8012,1.00676
82.9469,0.389682
83.1484,0.269158
83.242,0.187738
83.4046,0.07357
83.5893,0.222572
83.7898,0.550044
83.8672,0.133716
84.428,0.0642662
84.7375,0.0222971
84.8525,0.260841
85.2879,0.387876
85.3088,0.00768364
85.5263,0.0555625
86.043,0.93953
86.0893,0.0659501
86.1398,0.169799
86.2592,0.0570172
86.5751,0.275148
87.4414,1.67525
87.518,0.0802177
87.6244,0.235962
88.2263,0.706558
88.2883,0.413988
88.4589,0.338333
88.5308,0.0725802
88.8978,2.39677
89.0826,0.0938639
89.4432,0.122638
89.5714,0.207025
89.7245,0.243954
89.8055,0.350062
89.9542,0.883446
89.9918,0.129046