File: herald_visualization/Delia_Scripts/MnF3/240918-MnF3_1to1_KS6Lgraphite-0min_milled-20-70deg_40min.csv
2Theta,Intensity
20.0084,4352.0
20.1755,4327.0
20.3426,4093.0
20.5097,4171.0
20.6768,4091.0
20.8439,3999.0
21.011,3777.0
21.1781,3822.0
21.3453,3752.0
21.5124,3663.0
21.6795,3623.0
21.8466,3579.0
22.0137,3517.0
22.1808,3466.0
22.3479,3384.0
22.515,3326.0
22.6822,3196.0
22.8493,3194.0
23.0164,3245.0
23.1835,3235.0
23.3506,3222.0
23.5177,3225.0
23.6848,3715.0
23.8519,7175.0
24.0191,13119.0
24.1862,3799.0
24.3533,4203.0
24.5204,10323.0
24.6875,3242.0
24.8546,3062.0
25.0217,2816.0
25.1888,2784.0
25.356,2949.0
25.5231,3285.0
25.6902,3594.0
25.8573,3086.0
26.0244,2806.0
26.1915,2934.0
26.3586,3240.0
26.5258,4956.0
26.6929,3209.0
26.86,2714.0
27.0271,2547.0
27.1942,2528.0
27.3613,2551.0
27.5284,2539.0
27.6955,2493.0
27.8627,2456.0
28.0298,2521.0
28.1969,2470.0
28.364,2444.0
28.5311,2406.0
28.6982,2432.0
28.8653,2257.0
29.0324,2395.0
29.1996,2251.0
29.3667,2310.0
29.5338,2301.0
29.7009,2190.0
29.868,2319.0
30.0351,2158.0
30.2022,2157.0
30.3693,2177.0
30.5365,2239.0
30.7036,2247.0
30.8707,2156.0
31.0378,2173.0
31.2049,2091.0
31.372,2215.0
31.5391,2248.0
31.7062,2029.0
31.8734,2083.0
32.0405,2109.0
32.2076,2114.0
32.3747,2179.0
32.5418,2947.0
32.7089,2673.0
32.876,2051.0
33.0431,1962.0
33.2103,1998.0
33.3774,2015.0
33.5445,1987.0
33.7116,2009.0
33.8787,2613.0
34.0458,3231.0
34.2129,2054.0
34.38,1950.0
34.5472,1856.0
34.7143,2028.0
34.8814,1949.0
35.0485,2534.0
35.2156,2283.0
35.3827,1991.0
35.5498,2007.0
35.7169,1983.0
35.8841,1771.0
36.0512,1868.0
36.2183,1980.0
36.3854,1956.0
36.5525,1889.0
36.7196,1772.0
36.8867,1841.0
37.0538,1768.0
37.221,1801.0
37.3881,1786.0
37.5552,1801.0
37.7223,1756.0
37.8894,1687.0
38.0565,1753.0
38.2236,1752.0
38.3908,1687.0
38.5579,1769.0
38.725,1774.0
38.8921,1751.0
39.0592,1734.0
39.2263,1716.0
39.3934,1656.0
39.5605,1804.0
39.7277,1978.0
39.8948,2955.0
40.0619,1884.0
40.229,1824.0
40.3961,1773.0
40.5632,1760.0
40.7303,1789.0
40.8974,1933.0
41.0646,2465.0
41.2317,2394.0
41.3988,2696.0
41.5659,1913.0
41.733,1719.0
41.9001,1704.0
42.0672,1787.0
42.2343,1852.0
42.4015,1678.0
42.5686,1647.0
42.7357,1626.0
42.9028,1703.0
43.0699,1601.0
43.237,1585.0
43.4041,1610.0
43.5712,1700.0
43.7384,1886.0
43.9055,1742.0
44.0726,1549.0
44.2397,1538.0
44.4068,1498.0
44.5739,1545.0
44.741,1593.0
44.9081,1518.0
45.0753,1513.0
45.2424,1559.0
45.4095,1537.0
45.5766,1444.0
45.7437,1572.0
45.9108,1530.0
46.0779,1505.0
46.245,1516.0
46.4122,1484.0
46.5793,1462.0
46.7464,1568.0
46.9135,1541.0
47.0806,1514.0
47.2477,1497.0
47.4148,1455.0
47.5819,1498.0
47.7491,1491.0
47.9162,1491.0
48.0833,1493.0
48.2504,1521.0
48.4175,1566.0
48.5846,1562.0
48.7517,1594.0
48.9189,1950.0
49.086,3370.0
49.2531,2033.0
49.4202,1558.0
49.5873,1479.0
49.7544,1442.0
49.9215,1526.0
50.0886,1660.0
50.2558,2396.0
50.4229,1628.0
50.59,1452.0
50.7571,1507.0
50.9242,1473.0
51.0913,1437.0
51.2584,1444.0
51.4255,1515.0
51.5927,1418.0
51.7598,1478.0
51.9269,1433.0
52.094,1431.0
52.2611,1577.0
52.4282,1614.0
52.5953,1663.0
52.7624,1614.0
52.9296,1554.0
53.0967,1760.0
53.2638,2279.0
53.4309,1692.0
53.598,1437.0
53.7651,1444.0
53.9322,1434.0
54.0993,1461.0
54.2665,1494.0
54.4336,1487.0
54.6007,1679.0
54.7678,2622.0
54.9349,2382.0
55.102,1548.0
55.2691,1458.0
55.4362,1613.0
55.6034,2376.0
55.7705,2040.0
55.9376,1556.0
56.1047,1537.0
56.2718,1730.0
56.4389,1691.0
56.606,1475.0
56.7731,1447.0
56.9403,1472.0
57.1074,1874.0
57.2745,1927.0
57.4416,1722.0
57.6087,1479.0
57.7758,1313.0
57.9429,1462.0
58.11,1461.0
58.2772,1686.0
58.4443,1619.0
58.6114,1462.0
58.7785,1405.0
58.9456,1358.0
59.1127,1339.0
59.2798,1412.0
59.447,1400.0
59.6141,1449.0
59.7812,1442.0
59.9483,1450.0
60.1154,1373.0
60.2825,1469.0
60.4496,1420.0
60.6167,1554.0
60.7839,1312.0
60.951,1386.0
61.1181,1394.0
61.2852,1392.0
61.4523,1376.0
61.6194,1344.0
61.7865,1361.0
61.9536,1463.0
62.1208,1449.0
62.2879,1449.0
62.455,1475.0
62.6221,1800.0
62.7892,1686.0
62.9563,1854.0
63.1234,1738.0
63.2905,1579.0
63.4577,1542.0
63.6248,1780.0
63.7919,1647.0
63.959,1409.0
64.1261,1417.0
64.2932,1278.0
64.4603,1327.0
64.6274,1304.0
64.7946,1305.0
64.9617,1313.0
65.1288,1280.0
65.2959,1351.0
65.463,1354.0
65.6301,1364.0
65.7972,1364.0
65.9643,1304.0
66.1315,1385.0
66.2986,1351.0
66.4657,1326.0
66.6328,1321.0
66.7999,1296.0
66.967,1340.0
67.1341,1365.0
67.3012,1395.0
67.4684,1331.0
67.6355,1347.0
67.8026,1302.0
67.9697,1270.0
68.1368,1352.0
68.3039,1427.0
68.471,1444.0
68.6381,1341.0
68.8053,1331.0
68.9724,1227.0
69.1395,1270.0
69.3066,1283.0
69.4737,1326.0
69.6408,1299.0
69.8079,1230.0
69.975,1248.0
69.9918,1332.0