File: herald_visualization/Delia_Scripts/MnF3/240920-MnF3_1to1_KS6Lgraphite-100min_milled-20-70deg_40min.csv
2Theta,Intensity
20.0084,4505.0
20.1755,4400.0
20.3426,4282.0
20.5097,4314.0
20.6768,4121.0
20.8439,4207.0
21.011,4059.0
21.1781,3926.0
21.3453,3934.0
21.5124,3877.0
21.6795,3835.0
21.8466,3693.0
22.0137,3756.0
22.1808,3742.0
22.3479,3474.0
22.515,3560.0
22.6822,3618.0
22.8493,3890.0
23.0164,4184.0
23.1835,3946.0
23.3506,3776.0
23.5177,3700.0
23.6848,3804.0
23.8519,4073.0
24.0191,4364.0
24.1862,4026.0
24.3533,3814.0
24.5204,3532.0
24.6875,3189.0
24.8546,3089.0
25.0217,3040.0
25.1888,3007.0
25.356,3060.0
25.5231,3055.0
25.6902,3072.0
25.8573,3018.0
26.0244,3049.0
26.1915,2998.0
26.3586,3071.0
26.5258,2948.0
26.6929,3117.0
26.86,3247.0
27.0271,3488.0
27.1942,3529.0
27.3613,3307.0
27.5284,2969.0
27.6955,2900.0
27.8627,2761.0
28.0298,2739.0
28.1969,2740.0
28.364,2828.0
28.5311,2895.0
28.6982,2931.0
28.8653,3183.0
29.0324,3234.0
29.1996,2910.0
29.3667,2674.0
29.5338,2611.0
29.7009,2552.0
29.868,2397.0
30.0351,2384.0
30.2022,2338.0
30.3693,2331.0
30.5365,2290.0
30.7036,2300.0
30.8707,2291.0
31.0378,2310.0
31.2049,2187.0
31.372,2200.0
31.5391,2181.0
31.7062,2178.0
31.8734,2222.0
32.0405,2143.0
32.2076,2212.0
32.3747,2149.0
32.5418,2180.0
32.7089,2259.0
32.876,2233.0
33.0431,2083.0
33.2103,2086.0
33.3774,2212.0
33.5445,2116.0
33.7116,2085.0
33.8787,2231.0
34.0458,2182.0
34.2129,2060.0
34.38,2080.0
34.5472,2060.0
34.7143,2086.0
34.8814,2101.0
35.0485,2078.0
35.2156,1978.0
35.3827,2106.0
35.5498,2061.0
35.7169,2067.0
35.8841,2053.0
36.0512,2060.0
36.2183,2078.0
36.3854,1899.0
36.5525,1943.0
36.7196,1962.0
36.8867,1960.0
37.0538,1826.0
37.221,1901.0
37.3881,1945.0
37.5552,1912.0
37.7223,2002.0
37.8894,1945.0
38.0565,2013.0
38.2236,1991.0
38.3908,2000.0
38.5579,1850.0
38.725,1836.0
38.8921,1913.0
39.0592,1835.0
39.2263,1825.0
39.3934,1858.0
39.5605,1917.0
39.7277,1930.0
39.8948,1981.0
40.0619,1849.0
40.229,1882.0
40.3961,1769.0
40.5632,1888.0
40.7303,1891.0
40.8974,1859.0
41.0646,1964.0
41.2317,1933.0
41.3988,1884.0
41.5659,1961.0
41.733,1838.0
41.9001,1739.0
42.0672,1813.0
42.2343,1771.0
42.4015,1721.0
42.5686,1785.0
42.7357,1765.0
42.9028,1744.0
43.0699,1654.0
43.237,1690.0
43.4041,1732.0
43.5712,1735.0
43.7384,1764.0
43.9055,1702.0
44.0726,1776.0
44.2397,1660.0
44.4068,1670.0
44.5739,1770.0
44.741,1606.0
44.9081,1749.0
45.0753,1643.0
45.2424,1681.0
45.4095,1722.0
45.5766,1752.0
45.7437,1647.0
45.9108,1751.0
46.0779,1679.0
46.245,1732.0
46.4122,1752.0
46.5793,1877.0
46.7464,1876.0
46.9135,1849.0
47.0806,1907.0
47.2477,1926.0
47.4148,1771.0
47.5819,1710.0
47.7491,1706.0
47.9162,1549.0
48.0833,1652.0
48.2504,1621.0
48.4175,1657.0
48.5846,1711.0
48.7517,1736.0
48.9189,1796.0
49.086,1725.0
49.2531,1739.0
49.4202,1763.0
49.5873,1807.0
49.7544,1809.0
49.9215,1860.0
50.0886,1976.0
50.2558,2050.0
50.4229,1848.0
50.59,1858.0
50.7571,1825.0
50.9242,1737.0
51.0913,1690.0
51.2584,1661.0
51.4255,1689.0
51.5927,1757.0
51.7598,1771.0
51.9269,1720.0
52.094,1626.0
52.2611,1601.0
52.4282,1594.0
52.5953,1713.0
52.7624,1617.0
52.9296,1601.0
53.0967,1652.0
53.2638,1670.0
53.4309,1714.0
53.598,1629.0
53.7651,1589.0
53.9322,1566.0
54.0993,1627.0
54.2665,1583.0
54.4336,1687.0
54.6007,1657.0
54.7678,1746.0
54.9349,1734.0
55.102,1811.0
55.2691,1761.0
55.4362,1847.0
55.6034,1793.0
55.7705,1864.0
55.9376,1835.0
56.1047,1879.0
56.2718,1861.0
56.4389,1764.0
56.606,1740.0
56.7731,1763.0
56.9403,1787.0
57.1074,1652.0
57.2745,1642.0
57.4416,1625.0
57.6087,1621.0
57.7758,1588.0
57.9429,1599.0
58.11,1585.0
58.2772,1564.0
58.4443,1645.0
58.6114,1596.0
58.7785,1573.0
58.9456,1556.0
59.1127,1566.0
59.2798,1569.0
59.447,1546.0
59.6141,1569.0
59.7812,1558.0
59.9483,1628.0
60.1154,1667.0
60.2825,1668.0
60.4496,1589.0
60.6167,1625.0
60.7839,1678.0
60.951,1655.0
61.1181,1676.0
61.2852,1651.0
61.4523,1630.0
61.6194,1685.0
61.7865,1693.0
61.9536,1563.0
62.1208,1675.0
62.2879,1687.0
62.455,1629.0
62.6221,1612.0
62.7892,1644.0
62.9563,1526.0
63.1234,1580.0
63.2905,1629.0
63.4577,1642.0
63.6248,1556.0
63.7919,1573.0
63.959,1563.0
64.1261,1527.0
64.2932,1578.0
64.4603,1587.0
64.6274,1499.0
64.7946,1567.0
64.9617,1424.0
65.1288,1473.0
65.2959,1495.0
65.463,1536.0
65.6301,1512.0
65.7972,1496.0
65.9643,1510.0
66.0145,1572.0