File: herald_visualization/Delia_Scripts/MnF3/fitted-MnF3_1to1_KS6Lgraphite-0min_milled-20-70deg_40min.csv
2Theta,Intensity
20.0254,4341.18
20.1954,4310.39
20.3654,4169.48
20.5354,4105.55
20.7054,4089.5
20.8754,3914.11
21.0454,3902.41
21.2154,3874.38
21.3854,3752.69
21.5554,3766.86
21.7254,3648.49
21.8954,3574.9
22.0654,3490.85
22.2354,3400.99
22.4054,3392.65
22.5754,3333.41
22.7454,3237.87
22.9154,3258.95
23.0854,3220.33
23.2554,3290.7
23.4254,3175.68
23.5954,3358.43
23.7654,4538.78
23.9354,15927.3
24.1054,4922.6
24.2754,3714.29
24.4454,6601.11
24.6154,4773.44
24.7854,3004.84
24.9554,2968.33
25.1254,2818.16
25.2954,2834.88
25.4654,3077.37
25.6354,3715.05
25.8054,3211.85
25.9754,2847.13
26.1454,2833.23
26.3154,3089.16
26.4854,4493.7
26.6554,3473.33
26.8254,2805.3
26.9954,2592.26
27.1654,2631.35
27.3354,2529.81
27.5054,2611.63
27.6754,2519.38
27.8454,2530.86
28.0154,2480.47
28.1854,2414.84
28.3554,2405.25
28.5254,2393.28
28.6954,2411.46
28.8654,2257.23
29.0354,2381.57
29.2054,2268.71
29.3754,2291.8
29.5454,2298.23
29.7154,2261.84
29.8854,2212.11
30.0554,2188.12
30.2254,2184.7
30.3954,2197.55
30.5654,2164.22
30.7354,2160.58
30.9054,2216.83
31.0754,2126.47
31.2454,2174.26
31.4154,2274.66
31.5854,2168.06
31.7554,2080.39
31.9254,2082.21
32.0954,2060.92
32.2654,2038.14
32.4354,2166.81
32.6054,3584.32
32.7754,2197.16
32.9454,2096.3
33.1154,1969.07
33.2854,1982.01
33.4554,2032.33
33.6254,2048.7
33.7954,2121.17
33.9654,3963.84
34.1354,2277.6
34.3054,1971.93
34.4754,1993.7
34.6454,1999.54
34.8154,1945.95
34.9854,2199.86
35.1554,2474.48
35.3254,1904.45
35.4954,1958.68
35.6654,1982.91
35.8354,1839.95
36.0054,1932.76
36.1754,1921.43
36.3454,1958.26
36.5154,1915.44
36.6854,1834.77
36.8554,1853.43
37.0254,1771.69
37.1954,1766.7
37.3654,1779.9
37.5354,1769.03
37.7054,1779.89
37.8754,1722.33
38.0454,1718.24
38.2154,1752
38.3854,1691.2
38.5554,1753.69
38.7254,1772.84
38.8954,1738.3
39.0654,1730.32
39.2354,1741.43
39.4054,1713.1
39.5754,1796.91
39.7454,2139.63
39.9154,2679.33
40.0854,1861.21
40.2554,1775.59
40.4254,1735.26
40.5954,1803.54
40.7654,1922.2
40.9354,1980.67
41.1054,2560.11
41.2754,2369.87
41.4454,2432.48
41.6154,1774.7
41.7854,1678.1
41.9554,1652.98
42.1254,1882.25
42.2954,1828.7
42.4654,1676.82
42.6354,1571.08
42.8054,1582.14
42.9754,1686.08
43.1454,1621.22
43.3154,1628.57
43.4854,1663.61
43.6554,1728.11
43.8254,1735.76
43.9954,1545.71
44.1654,1576.2
44.3354,1663.67
44.5054,1498.04
44.6754,1592.11
44.8454,1520.58
45.0154,1499.68
45.1854,1581
45.3554,1573.05
45.5254,1464.58
45.6954,1503.76
45.8654,1498.11
46.0354,1483.68
46.2054,1499.62
46.3754,1524.98
46.5454,1407.93
46.7154,1534.86
46.8854,1473.59
47.0554,1514.24
47.2254,1494.39
47.3954,1505.35
47.5654,1511.9
47.7354,1507.4
47.9054,1473.52
48.0754,1485.88
48.2454,1514.96
48.4154,1553.22
48.5854,1557.24
48.7554,1606.34
48.9254,2014.22
49.0954,3130.58
49.2654,1940.42
49.4354,1547.11
49.6054,1467.57
49.7754,1523.37
49.9454,1476.56
50.1154,1699.8
50.2854,2147.17
50.4554,1601.13
50.6254,1551.87
50.7954,1457.07
50.9654,1432.94
51.1354,1430.49
51.3054,1454.64
51.4754,1455.19
51.6454,1409.62
51.8154,1435.02
51.9854,1430.98
52.1554,1493.1
52.3254,1562.17
52.4954,1719.97
52.6654,1682.91
52.8354,1604.87
53.0054,1566.61
53.1754,2464.6
53.3454,2189.95
53.5154,1551.45
53.6854,1371.39
53.8554,1408
54.0254,1438.33
54.1954,1448.25
54.3654,1478.03
54.5354,1650.28
54.7054,2015.26
54.8754,2343.22
55.0454,1685.79
55.2154,1449.56
55.3854,1533.67
55.5554,1975.13
55.7254,2050.88
55.8954,1569.35
56.0654,1511.27
56.2354,1626.25
56.4054,1742.21
56.5754,1509.69
56.7454,1473.37
56.9154,1540.92
57.0854,1754.92
57.2554,1917.05
57.4254,1852.24
57.5954,1532.54
57.7654,1370
57.9354,1431.15
58.1054,1445.27
58.2754,1689.78
58.4454,1615.05
58.6154,1437.78
58.7854,1379.97
58.9554,1392.4
59.1254,1391.91
59.2954,1358.14
59.4654,1379.9
59.6354,1432.16
59.8054,1564.91
59.9754,1425.63
60.1454,1393.43
60.3154,1404.55
60.4854,1581.79
60.6554,1460.36
60.8254,1375.24
60.9954,1370.99
61.1654,1317.99
61.3354,1347.98
61.5054,1288.25
61.6754,1364.99
61.8454,1365.15
62.0154,1336.48
62.1854,1383.66
62.3554,1479.73
62.5254,1603.83
62.6954,1700.1
62.8654,1702.62
63.0354,1766.73
63.2054,1624.39
63.3754,1452.39
63.5454,1686.79
63.7154,1838.6
63.8854,1578.06
64.0554,1412.16
64.2254,1335.63
64.3954,1344.02
64.5654,1379.07
64.7354,1375.38
64.9054,1363.8
65.0754,1306.29
65.2454,1276.41
65.4154,1348.11
65.5854,1383.16
65.7554,1369.94
65.9254,1325.33
66.0954,1439.89
66.2654,1440.4
66.4354,1316.85
66.6054,1330.02
66.7754,1268.43
66.9454,1301.06
67.1154,1234.29
67.2854,1274.23
67.4554,1273.42
67.6254,1333.68
67.7954,1303.73
67.9654,1298.06
68.1354,1348.17
68.3054,1427.09
68.4754,1425.39
68.6454,1333.24
68.8154,1343.08
68.9854,1286.82
69.1554,1299.44
69.3254,1330.79
69.4954,1318.92
69.6654,1299.55
69.8354,1285.92
69.9884,1314.88