File: herald_visualization/Delia_Scripts/CoF3/240827-CoF3_1to1_KS6Lgraphite-100min_milled-20-70deg_40min.csv
2Theta,Intensity
20.0084,7218.0
20.1755,7140.0
20.3426,7188.0
20.5097,7082.0
20.6768,7042.0
20.8439,7046.0
21.011,6972.0
21.1781,6907.0
21.3453,6929.0
21.5124,6673.0
21.6795,6756.0
21.8466,6602.0
22.0137,6658.0
22.1808,6511.0
22.3479,6674.0
22.515,6498.0
22.6822,6443.0
22.8493,6365.0
23.0164,6441.0
23.1835,6335.0
23.3506,6193.0
23.5177,6160.0
23.6848,6154.0
23.8519,6294.0
24.0191,6417.0
24.1862,6279.0
24.3533,6496.0
24.5204,6572.0
24.6875,6322.0
24.8546,6228.0
25.0217,6228.0
25.1888,6195.0
25.356,6003.0
25.5231,6238.0
25.6902,6243.0
25.8573,6253.0
26.0244,6454.0
26.1915,6326.0
26.3586,6468.0
26.5258,6626.0
26.6929,6874.0
26.86,7287.0
27.0271,7238.0
27.1942,6620.0
27.3613,6369.0
27.5284,6145.0
27.6955,6196.0
27.8627,6013.0
28.0298,6128.0
28.1969,6146.0
28.364,6149.0
28.5311,5974.0
28.6982,6139.0
28.8653,5982.0
29.0324,6024.0
29.1996,5942.0
29.3667,5990.0
29.5338,5840.0
29.7009,6014.0
29.868,6093.0
30.0351,5846.0
30.2022,5888.0
30.3693,5917.0
30.5365,5935.0
30.7036,5818.0
30.8707,5826.0
31.0378,5892.0
31.2049,5882.0
31.372,5945.0
31.5391,6083.0
31.7062,5677.0
31.8734,5905.0
32.0405,6010.0
32.2076,5833.0
32.3747,5901.0
32.5418,5758.0
32.7089,5850.0
32.876,5885.0
33.0431,5762.0
33.2103,5766.0
33.3774,5804.0
33.5445,6103.0
33.7116,6043.0
33.8787,6447.0
34.0458,6401.0
34.2129,6266.0
34.38,6009.0
34.5472,6058.0
34.7143,5895.0
34.8814,5879.0
35.0485,5815.0
35.2156,5803.0
35.3827,5790.0
35.5498,5826.0
35.7169,5834.0
35.8841,5621.0
36.0512,5771.0
36.2183,5691.0
36.3854,5831.0
36.5525,5659.0
36.7196,5741.0
36.8867,5845.0
37.0538,5846.0
37.221,5665.0
37.3881,5649.0
37.5552,5706.0
37.7223,5802.0
37.8894,5646.0
38.0565,5835.0
38.2236,5928.0
38.3908,5932.0
38.5579,5790.0
38.725,5903.0
38.8921,5884.0
39.0592,5790.0
39.2263,6058.0
39.3934,6119.0
39.5605,5811.0
39.7277,5804.0
39.8948,5724.0
40.0619,5831.0
40.229,5814.0
40.3961,5699.0
40.5632,5659.0
40.7303,5661.0
40.8974,5732.0
41.0646,5745.0
41.2317,5620.0
41.3988,5754.0
41.5659,5652.0
41.733,5663.0
41.9001,5669.0
42.0672,5692.0
42.2343,5680.0
42.4015,5763.0
42.5686,5734.0
42.7357,5613.0
42.9028,5774.0
43.0699,5741.0
43.237,5821.0
43.4041,5815.0
43.5712,5803.0
43.7384,5659.0
43.9055,5647.0
44.0726,5657.0
44.2397,5607.0
44.4068,5645.0
44.5739,5667.0
44.741,5620.0
44.9081,5671.0
45.0753,5690.0
45.2424,5669.0
45.4095,5481.0
45.5766,5711.0
45.7437,5539.0
45.9108,5596.0
46.0779,5514.0
46.245,5747.0
46.4122,5669.0
46.5793,5720.0
46.7464,5617.0
46.9135,5676.0
47.0806,5581.0
47.2477,5742.0
47.4148,5571.0
47.5819,5699.0
47.7491,5802.0
47.9162,5520.0
48.0833,5584.0
48.2504,5506.0
48.4175,5548.0
48.5846,5584.0
48.7517,5530.0
48.9189,5651.0
49.086,5699.0
49.2531,5721.0
49.4202,5626.0
49.5873,5684.0
49.7544,5721.0
49.9215,5816.0
50.0886,5755.0
50.2558,5632.0
50.4229,5557.0
50.59,5635.0
50.7571,5873.0
50.9242,5675.0
51.0913,5688.0
51.2584,5852.0
51.4255,5721.0
51.5927,5761.0
51.7598,5935.0
51.9269,6119.0
52.094,6224.0
52.2611,6321.0
52.4282,6266.0
52.5953,6093.0
52.7624,5990.0
52.9296,5789.0
53.0967,5851.0
53.2638,5705.0
53.4309,5742.0
53.598,5764.0
53.7651,5708.0
53.9322,5838.0
54.0993,5777.0
54.2665,5732.0
54.4336,5689.0
54.6007,5768.0
54.7678,5776.0
54.9349,5815.0
55.102,5930.0
55.2691,6006.0
55.4362,5908.0
55.6034,5901.0
55.7705,5680.0
55.9376,5861.0
56.1047,5626.0
56.2718,5739.0
56.4389,5729.0
56.606,5772.0
56.7731,5736.0
56.9403,5667.0
57.1074,5767.0
57.2745,5660.0
57.4416,5693.0
57.6087,5899.0
57.7758,5957.0
57.9429,5945.0
58.11,5884.0
58.2772,5854.0
58.4443,5774.0
58.6114,5725.0
58.7785,5861.0
58.9456,5714.0
59.1127,5774.0
59.2798,5683.0
59.447,5714.0
59.6141,5611.0
59.7812,5776.0
59.9483,5705.0
60.1154,5810.0
60.2825,5802.0
60.4496,5757.0
60.6167,5744.0
60.7839,5753.0
60.951,5756.0
61.1181,5776.0
61.2852,5831.0
61.4523,5735.0
61.6194,5753.0
61.7865,5785.0
61.9536,5874.0
62.1208,5862.0
62.2879,5790.0
62.455,5801.0
62.6221,5754.0
62.7892,5824.0
62.9563,5797.0
63.1234,5878.0
63.2905,5995.0
63.4577,5908.0
63.6248,5712.0
63.7919,5813.0
63.959,5627.0
64.1261,5999.0
64.2932,5825.0
64.4603,5855.0
64.6274,5917.0
64.7946,5774.0
64.9617,5736.0
65.1288,5831.0
65.2959,5751.0
65.463,5785.0
65.6301,5793.0
65.7972,5900.0
65.9643,5864.0
66.1315,5912.0
66.2986,5935.0
66.4657,5841.0
66.6328,5916.0
66.7999,5946.0
66.967,5754.0
67.1341,5721.0
67.3012,5828.0
67.4684,5747.0
67.6355,5851.0
67.8026,5741.0
67.9697,5819.0
68.1368,5794.0
68.3039,5851.0
68.471,5705.0
68.6381,5787.0
68.8053,5894.0
68.9724,5787.0
69.1395,5791.0
69.3066,5691.0
69.4737,5677.0
69.6408,5710.0
69.8079,5770.0
69.975,5732.0
69.9918,5822.0