File: herald_visualization/Delia_Scripts/CoF3/240827-CoF3_1to1_KS6Lgraphite-0min_milled-20-70deg_40min.csv
2Theta,Intensity
20.0084,8543.0
20.1755,8554.0
20.3426,8493.0
20.5097,8385.0
20.6768,8373.0
20.8439,8243.0
21.011,8206.0
21.1781,8210.0
21.3453,7996.0
21.5124,7789.0
21.6795,7987.0
21.8466,7824.0
22.0137,7973.0
22.1808,7846.0
22.3479,7845.0
22.515,7688.0
22.6822,7679.0
22.8493,7584.0
23.0164,7738.0
23.1835,7458.0
23.3506,7535.0
23.5177,7387.0
23.6848,7678.0
23.8519,7548.0
24.0191,7714.0
24.1862,7865.0
24.3533,10862.0
24.5204,18286.0
24.6875,8678.0
24.8546,7404.0
25.0217,7341.0
25.1888,7331.0
25.356,7236.0
25.5231,7250.0
25.6902,7311.0
25.8573,7386.0
26.0244,7456.0
26.1915,7267.0
26.3586,7624.0
26.5258,8267.0
26.6929,7786.0
26.86,7517.0
27.0271,7160.0
27.1942,7160.0
27.3613,7101.0
27.5284,7060.0
27.6955,6887.0
27.8627,6987.0
28.0298,6923.0
28.1969,6954.0
28.364,6916.0
28.5311,7040.0
28.6982,6744.0
28.8653,7135.0
29.0324,6812.0
29.1996,6930.0
29.3667,6902.0
29.5338,6877.0
29.7009,6722.0
29.868,6889.0
30.0351,6758.0
30.2022,6768.0
30.3693,6671.0
30.5365,6715.0
30.7036,6718.0
30.8707,6695.0
31.0378,6724.0
31.2049,6606.0
31.372,6606.0
31.5391,6708.0
31.7062,6688.0
31.8734,6603.0
32.0405,6697.0
32.2076,6607.0
32.3747,6541.0
32.5418,6674.0
32.7089,6584.0
32.876,6515.0
33.0431,6528.0
33.2103,6760.0
33.3774,6625.0
33.5445,6480.0
33.7116,6656.0
33.8787,7001.0
34.0458,7923.0
34.2129,7173.0
34.38,6702.0
34.5472,6547.0
34.7143,6385.0
34.8814,6459.0
35.0485,6502.0
35.2156,6498.0
35.3827,6605.0
35.5498,6814.0
35.7169,6947.0
35.8841,6698.0
36.0512,6476.0
36.2183,6297.0
36.3854,6595.0
36.5525,6442.0
36.7196,6380.0
36.8867,6444.0
37.0538,6491.0
37.221,6477.0
37.3881,6407.0
37.5552,6311.0
37.7223,6401.0
37.8894,6426.0
38.0565,6391.0
38.2236,6410.0
38.3908,6293.0
38.5579,6315.0
38.725,6489.0
38.8921,6544.0
39.0592,6320.0
39.2263,6372.0
39.3934,6378.0
39.5605,6289.0
39.7277,6255.0
39.8948,6271.0
40.0619,6311.0
40.229,6239.0
40.3961,6322.0
40.5632,6343.0
40.7303,6348.0
40.8974,6386.0
41.0646,6720.0
41.2317,7175.0
41.3988,7550.0
41.5659,6706.0
41.733,6257.0
41.9001,6351.0
42.0672,6176.0
42.2343,6256.0
42.4015,6354.0
42.5686,6389.0
42.7357,6277.0
42.9028,6277.0
43.0699,6423.0
43.237,6354.0
43.4041,6386.0
43.5712,6434.0
43.7384,6540.0
43.9055,6392.0
44.0726,6392.0
44.2397,6134.0
44.4068,6374.0
44.5739,6132.0
44.741,6323.0
44.9081,6219.0
45.0753,6241.0
45.2424,6301.0
45.4095,6249.0
45.5766,6231.0
45.7437,6175.0
45.9108,6334.0
46.0779,6040.0
46.245,6200.0
46.4122,6260.0
46.5793,5940.0
46.7464,6329.0
46.9135,6169.0
47.0806,6121.0
47.2477,6253.0
47.4148,6115.0
47.5819,6149.0
47.7491,6103.0
47.9162,6274.0
48.0833,6313.0
48.2504,6191.0
48.4175,6158.0
48.5846,6205.0
48.7517,6185.0
48.9189,6092.0
49.086,6270.0
49.2531,6376.0
49.4202,6254.0
49.5873,6313.0
49.7544,6347.0
49.9215,6476.0
50.0886,7530.0
50.2558,7229.0
50.4229,6388.0
50.59,6257.0
50.7571,6365.0
50.9242,6278.0
51.0913,6319.0
51.2584,6109.0
51.4255,6098.0
51.5927,6057.0
51.7598,6181.0
51.9269,6169.0
52.094,6121.0
52.2611,6205.0
52.4282,6165.0
52.5953,6058.0
52.7624,6061.0
52.9296,6129.0
53.0967,6229.0
53.2638,5958.0
53.4309,6166.0
53.598,6106.0
53.7651,6148.0
53.9322,6096.0
54.0993,6185.0
54.2665,6146.0
54.4336,6284.0
54.6007,6207.0
54.7678,6378.0
54.9349,6348.0
55.102,6511.0
55.2691,6997.0
55.4362,7860.0
55.6034,7112.0
55.7705,6404.0
55.9376,6225.0
56.1047,6285.0
56.2718,6244.0
56.4389,6091.0
56.606,6248.0
56.7731,6194.0
56.9403,6234.0
57.1074,6284.0
57.2745,6234.0
57.4416,6430.0
57.6087,6719.0
57.7758,6757.0
57.9429,6463.0
58.11,6201.0
58.2772,6152.0
58.4443,6210.0
58.6114,6151.0
58.7785,6231.0
58.9456,5970.0
59.1127,6106.0
59.2798,6169.0
59.447,6159.0
59.6141,6172.0
59.7812,6355.0
59.9483,6306.0
60.1154,6134.0
60.2825,6037.0
60.4496,6270.0
60.6167,6149.0
60.7839,6115.0
60.951,6230.0
61.1181,6277.0
61.2852,6112.0
61.4523,6228.0
61.6194,5899.0
61.7865,6216.0
61.9536,6164.0
62.1208,5952.0
62.2879,6148.0
62.455,6255.0
62.6221,6325.0
62.7892,6213.0
62.9563,6378.0
63.1234,6500.0
63.2905,6329.0
63.4577,6248.0
63.6248,6339.0
63.7919,6178.0
63.959,6275.0
64.1261,6495.0
64.2932,6177.0
64.4603,6205.0
64.6274,6062.0
64.7946,6153.0
64.9617,6185.0
65.1288,6249.0
65.2959,6130.0
65.463,6049.0
65.6301,6184.0
65.7972,5981.0
65.9643,5790.0
66.1315,6069.0
66.2986,6056.0
66.4657,6034.0
66.6328,6213.0
66.7999,6001.0
66.967,6065.0
67.1341,6114.0
67.3012,6082.0
67.4684,6144.0
67.6355,5955.0
67.8026,6051.0
67.9697,6061.0
68.1368,6096.0
68.3039,5939.0
68.471,5978.0
68.6381,6085.0
68.8053,6154.0
68.9724,6114.0
69.1395,6098.0
69.3066,5980.0
69.4737,6194.0
69.6408,6158.0
69.8079,6071.0
69.975,6117.0
69.9918,5956.0