File: herald_visualization/Delia_Scripts/CoF3/CoF3_iback_100mins.csv
2Theta,Intensity
20.0084,7218.0
20.1784,7155.05
20.3484,7091.32
20.5184,7026.78
20.6884,6962.25
20.8584,6896.92
21.0284,6830.8
21.1984,6794.76
21.3684,6758.03
21.5384,6720.6
21.7084,6683.18
21.8784,6645.06
22.0484,6606.25
22.2184,6565.73
22.3884,6525.51
22.5584,6485.6
22.7284,6444.52
22.8984,6403.45
23.0684,6362.37
23.2384,6320.13
23.4084,6293.62
23.5784,6282.83
23.7484,6270.56
23.9184,6258.29
24.0884,6246.03
24.2584,6232.27
24.4284,6217.78
24.5984,6202.55
24.7684,6185.42
24.9384,6167.44
25.1084,6148.6
25.2784,6152.38
25.4484,6155.41
25.6184,6157.68
25.7884,6158.308
25.9584,6158.05
26.1284,6156.92
26.2984,6153.96
26.4684,6150.11
26.6384,6145.356
26.8084,6138.87
26.9784,6131.56
27.1484,6123.42
27.3184,6113.68
27.4884,6103.94
27.6584,6094.2
27.8284,6082.87
27.9984,6070.78
28.1684,6057.92
28.3384,6043.61
28.5084,6028.59
28.6784,6012.87
28.8484,5995.78
29.0184,5978.01
29.1884,5959.563
29.3584,5939.441
29.5284,5922.82
29.6984,5909.69
29.8684,5895.24
30.0384,5880.78
30.2084,5866.33
30.3784,5850.55
30.5484,5833.95
30.7184,5816.53
30.8884,5817.97
31.0584,5818.89
31.2284,5819.29
31.3984,5818.44
31.5684,5817.6
31.7384,5816.75
31.9084,5813.98
32.0784,5810.53
32.2484,5806.39
32.4184,5802.26
32.5884,5802.1
32.7584,5805.92
32.9284,5808.21
33.0984,5809.71
33.2684,5810.432
33.4384,5809.529
33.6084,5807.802
33.7784,5805.251
33.9484,5802.7
34.1184,5799.33
34.2884,5795.13
34.4584,5789.25
34.6284,5782.54
34.7984,5774.99
34.9684,5765.8
35.1384,5755.84
35.3084,5745.1
35.4784,5740.01
35.6484,5734.04
35.8184,5727.18
35.9884,5720.33
36.1584,5714.966
36.3284,5711.09
36.4984,5707.21
36.6684,5703.04
36.8384,5698.56
37.0084,5694.089
37.1784,5688.78
37.3484,5682.622
37.5184,5690.83
37.6884,5698.247
37.8584,5704.88
38.0284,5709.85
38.1984,5713.93
38.3684,5717.13
38.5384,5718.54
38.7084,5719.95
38.8784,5721.351
39.0484,5720.96
39.2184,5719.652
39.3884,5717.43
39.5584,5713.39
39.7284,5708.51
39.8984,5702.79
40.0684,5695.59
40.2384,5689.14
40.4084,5683.45
40.5784,5676.58
40.7484,5669.71
40.9184,5662.83
41.0884,5654.78
41.2584,5652.82
41.4284,5656.97
41.5984,5660.02
41.7684,5662.54
41.9384,5664.51
42.1084,5665.22
42.2784,5665.18
42.4484,5664.38
42.6184,5661.93
42.7884,5659.49
42.9584,5657.04
43.1284,5652.94
43.2984,5647.94
43.4684,5642.03
43.6384,5634.28
43.8084,5625.7
43.9784,5616.3
44.1484,5616.67
44.3184,5616.52
44.4884,5615.88
44.6584,5615.23
44.8284,5614.08
44.9984,5612.42
45.1684,5609.9
45.3384,5607.37
45.5084,5604.85
45.6784,5613.714
45.8484,5621.74
46.0184,5628.933
46.1884,5634.24
46.3584,5638.8
46.5284,5642.639
46.6984,5645.01
46.8684,5646.7
47.0384,5647.72
47.2084,5647.37
47.3784,5646.3
47.5484,5644.5
47.7184,5642.71
47.8884,5640.19
48.0584,5636.95
48.2284,5632.2
48.3984,5626.64
48.5684,5620.28
48.7384,5612.26
48.9084,5609.05
49.0784,5610.65
49.2484,5618.84
49.4184,5627.03
49.5884,5635.21
49.7584,5642.25
49.9284,5650.88
50.0984,5661.08
50.2684,5669.83
50.4384,5677.883
50.6084,5685.23
50.7784,5691.17
50.9484,5696.39
51.1184,5700.88
51.2884,5703.86
51.4584,5706.84
51.6284,5709.81
51.7984,5711.27
51.9684,5711.94
52.1384,5711.82
52.3084,5710.02
52.4784,5707.33
52.6484,5703.76
52.8184,5698.33
52.9884,5691.943
53.1584,5684.6
53.3284,5675.37
53.4984,5665.32
53.6684,5654.45
53.8384,5657.84
54.0084,5661.22
54.1784,5664.6
54.3484,5672.54
54.5184,5679.73
54.6884,5686.19
54.8584,5690.95
55.0284,5694.78
55.1984,5697.68
55.3684,5698.729
55.5384,5698.9
55.7084,5698.202
55.8784,5695.83
56.0484,5693.45
56.2184,5691.07
56.3884,5687.02
56.5584,5682.18
56.7284,5676.53
56.8984,5669.38
57.0684,5669
57.2384,5675.4
57.4084,5680.3
57.5784,5684.47
57.7484,5687.89
57.9184,5691.31
58.0884,5694
58.2584,5695.95
58.4284,5696.437
58.5984,5696.18
58.7684,5695.17
58.9384,5692.55
59.1084,5689.19
59.2784,5685.089
59.4484,5688.76
59.6184,5691.66
59.7884,5693.78
59.9584,5694.35
60.1284,5694.91
60.2984,5695.48
60.4684,5694.48
60.6384,5692.7
60.8084,5690.13
60.9784,5697.77
61.1484,5704.68
61.3184,5710.87
61.4884,5715.57
61.6584,5719.57
61.8284,5722.88
61.9984,5724.84
62.1684,5726.8
62.3384,5728.76
62.5084,5729.37
62.6784,5729.33
62.8484,5728.64
63.0184,5726.64
63.1884,5723.85
63.3584,5720.282
63.5284,5714.78
63.6984,5716.6
63.8684,5725.75
64.0384,5734.89
64.2084,5743.43
64.3784,5751.36
64.5484,5758.63
64.7184,5765.01
64.8884,5770.49
65.0584,5774.5
65.2284,5778.52
65.3984,5782.54
65.5684,5785.1
65.7384,5786.88
65.9084,5787.9
66.0784,5787.28
66.2484,5785.74
66.4184,5783.29
66.5884,5779.4
66.7584,5774.79
66.9284,5769.473
67.0984,5764.15
67.2684,5758.12
67.4384,5751.37
67.6084,5749.71
67.7784,5748.05
67.9484,5746.39
68.1184,5742.85
68.2884,5738.73
68.4584,5734.01
68.6284,5729.3
68.7984,5723.88
68.9684,5717.76
69.1384,5725.69
69.3084,5733.61
69.4784,5741.54
69.6484,5762.245
69.8184,5782.95
69.9884,5801.59