File: herald_visualization/Delia_Scripts/CoF3/CoF3_100mins_Intensity.csv
2Theta,Intensity
20.0084,7218.0
20.1784,7166.78
20.3484,7208.73
20.5184,7086.665
20.6884,7104.2
20.8584,6954.43
21.0284,6683.81
21.1984,6923.13
21.3684,6903.214
21.5384,6810.01
21.7084,6740.65
21.8784,6702.949
22.0484,6537.6
22.2184,6613.16
22.3884,6600.68
22.5584,6564.46
22.7284,6539.47
22.8984,6485.69
23.0684,6490.38
23.2384,6309.05
23.4084,6394.28
23.5784,6385.66
23.7484,6211.81
23.9184,6293.35
24.0884,6314.76
24.2584,6618.9
24.4284,6609.39
24.5984,6469.09
24.7684,6397.147
24.9384,6247.66
25.1084,6083.61
25.2784,6136.99
25.4484,6208.55
25.6184,6225.38
25.7884,6182.23
25.9584,6222.51
26.1284,6343.48
26.2984,6409.65
26.4684,6574.01
26.6384,6796.8
26.8084,7228.28
26.9784,7250.24
27.1484,6784.34
27.3184,6442.8
27.4884,6297.02
27.6584,6248.97
27.8284,6132.889
27.9984,6230.14
28.1684,6040.87
28.3384,6161.2
28.5084,5972.33
28.6784,6117.28
28.8484,6159.69
29.0184,6039.17
29.1884,6040.5
29.3584,5943.75
29.5284,5861.09
29.6984,5996.55
29.8684,6090.41
30.0384,5858.6
30.2084,5870.771
30.3784,5973.63
30.5484,5966.33
30.7184,5731.28
30.8884,5904.98
31.0584,5898.82
31.2284,5795.888
31.3984,5764.82
31.5684,5829.57
31.7384,5769.96
31.9084,5935.7
32.0784,5779.1
32.2484,5868.77
32.4184,5791.8
32.5884,5924.74
32.7584,5951.54
32.9284,5847.66
33.0984,5813.12
33.2684,5924.69
33.4384,5855.335
33.6084,6053.82
33.7784,6324.82
33.9484,6410.12
34.1184,6400.36
34.2884,6152.45
34.4584,6018.372
34.6284,5969.29
34.7984,5911.45
34.9684,5828.893
35.1384,5722
35.3084,5703.03
35.4784,5711.37
35.6484,5698.35
35.8184,5966.23
35.9884,5735.07
36.1584,5735.11
36.3284,5681.96
36.4984,5768.67
36.6684,5731.92
36.8384,5635.46
37.0084,5757.01
37.1784,5727.976
37.3484,5716.51
37.5184,5699.51
37.6884,5662.47
37.8584,5821.991
38.0284,5743.88
38.1984,5857.859
38.3684,5841.19
38.5384,5833.69
38.7084,5858.24
38.8784,5946.46
39.0484,5898.39
39.2184,6046.09
39.3884,6069.53
39.5584,5806.56
39.7284,5805.09
39.8984,5740.54
40.0684,5775.19
40.2384,5761.89
40.4084,5717.33
40.5784,5733.29
40.7484,5597.49
40.9184,5810.91
41.0884,5848.79
41.2584,5663.09
41.4284,5725.58
41.5984,5655.3
41.7684,5767.46
41.9384,5693.2
42.1084,5623.35
42.2784,5686.7
42.4484,5671.81
42.6184,5841.55
42.7884,5726.34
42.9584,5645.01
43.1284,5668.74
43.2984,5720.1
43.4684,5689.37
43.6384,5690.51
43.8084,5651.377
43.9784,5635.65
44.1484,5714.7
44.3184,5758.47
44.4884,5637.93
44.6584,5678
44.8284,5736.89
44.9984,5530.318
45.1684,5644.51
45.3384,5598.03
45.5084,5632.65
45.6784,5697.21
45.8484,5728.12
46.0184,5627.91
46.1884,5649.11
46.3584,5690.02
46.5284,5737.31
46.6984,5747.59
46.8684,5572.66
47.0384,5711.41
47.2084,5733.91
47.3784,5606.15
47.5484,5691.7
47.7184,5591.83
47.8884,5543.61
48.0584,5696.289
48.2284,5625.298
48.3984,5621.36
48.5684,5577.18
48.7384,5685.36
48.9084,5638.44
49.0784,5634.81
49.2484,5708.57
49.4184,5616.67
49.5884,5676.37
49.7584,5689.87
49.9284,5737.55
50.0984,5732.907
50.2684,5682.53
50.4384,5620.96
50.6084,5772.05
50.7784,5740.995
50.9484,5767.91
51.1184,5751.06
51.2884,5726.24
51.4584,5824.29
51.6284,5898.41
51.7984,6092.81
51.9684,6187.13
52.1384,6490.54
52.3084,6314.61
52.4784,6069.02
52.6484,6071.51
52.8184,5965.93
52.9884,5815.62
53.1584,5915.32
53.3284,5659.16
53.4984,5562.273
53.6684,5723.68
53.8384,5634.96
54.0084,5677.13
54.1784,5665.82
54.3484,5663
54.5184,5694.78
54.6884,5767.03
54.8584,5813.48
55.0284,5877.13
55.1984,6015.35
55.3684,6019.06
55.5384,5895.28
55.7084,5823.11
55.8784,5785.19
56.0484,5787.171
56.2184,5771.04
56.3884,5804.2
56.5584,5822.42
56.7284,5796.78
56.8984,5747.68
57.0684,5774.46
57.2384,5768
57.4084,5711.97
57.5784,5673.13
57.7484,5784.57
57.9184,5853.15
58.0884,5871.392
58.2584,5950.11
58.4284,5774.95
58.5984,5767.11
58.7684,5779.66
58.9384,5719.21
59.1084,5719.62
59.2784,5687.79
59.4484,5716.69
59.6184,5650.3
59.7884,5724.44
59.9584,5729.1
60.1284,5795.27
60.2984,5746.07
60.4684,5777.32
60.6384,5780.04
60.8084,5674.2
60.9784,5698.45
61.1484,5737.04
61.3184,5736.71
61.4884,5653.82
61.6584,5763.66
61.8284,5750.545
61.9984,5764.9
62.1684,5834.33
62.3384,5581.3
62.5084,5797.79
62.6784,5807.04
62.8484,5797.08
63.0184,5836.26
63.1884,5752.91
63.3584,5883.99
63.5284,5866.08
63.6984,5770.09
63.8684,5800.22
64.0384,5795.67
64.2084,5842.41
64.3784,5704.66
64.5484,5796.417
64.7184,5847.81
64.8884,5761.81
65.0584,5881.5
65.2284,5934.42
65.3984,5774.13
65.5684,5863.81
65.7384,5841.156
65.9084,5788.392
66.0784,5775.47
66.2484,5873.17
66.4184,5883.45
66.5884,5941.25
66.7584,5967.97
66.9284,5881.25
67.0984,5802.66
67.2684,5713.71
67.4384,5703.07
67.6084,5723.699
67.7784,5841.34
67.9484,5726.1
68.1184,5666.92
68.2884,5816.53
68.4584,5783.15
68.6284,5777.62
68.7984,5739.04
68.9684,5775.46
69.1384,5788.63
69.3084,5690.79
69.4784,5687.28
69.6484,5832.58
69.8184,5857.28
69.9884,5803.66