File: herald_visualization/Delia_Scripts/CoF3/CoF3_100min_fitted_data.csv
2Theta,Intensity
20.0084,7218.78
20.1784,7157.37
20.3484,7093.78
20.5184,7029.41
20.6884,6965.05
20.8584,6899.93
21.0284,6834.03
21.1984,6798.25
21.3684,6761.8
21.5384,6724.71
21.7084,6687.66
21.8784,6649.98
22.0484,6611.68
22.2184,6571.77
22.3884,6532.29
22.5584,6493.27
22.7284,6453.31
22.8984,6413.66
23.0684,6374.45
23.2384,6334.74
23.4084,6311.82
23.5784,6306.55
23.7484,6304.52
23.9184,6317.68
24.0884,6372.37
24.2584,6490.24
24.4284,6610.43
24.5984,6559.53
24.7684,6394.97
24.9384,6271.94
25.1084,6208.96
25.2784,6199.856
25.4484,6201.36
25.6184,6207.6
25.7884,6217.61
25.9584,6236.01
26.1284,6276.52
26.2984,6372.89
26.4684,6578.39
26.6384,6908.03
26.8084,7221.37
26.9784,7201.8
27.1484,6865.05
27.3184,6526.01
27.4884,6313.24
27.6584,6207.33
27.8284,6154.7
27.9984,6122.65
28.1684,6097.95
28.3384,6075.67
28.5084,6054.953
28.6784,6035
28.8484,6014.7
29.0184,5994.45
29.1884,5974.06
29.3584,5952.4
29.5284,5934.55
29.6984,5920.44
29.8684,5905.2
30.0384,5890.125
30.2084,5874.73
30.3784,5858.63
30.5484,5841.81
30.7184,5824.27
30.8884,5825.69
31.0584,5826.69
31.2284,5827.29
31.3984,5826.77
31.5684,5826.46
31.7384,5826.31
31.9084,5824.41
32.0784,5822.13
32.2484,5819.55
32.4184,5817.514
32.5884,5820.56
32.7584,5828.44
32.9284,5836.71
33.0984,5847.98
33.2684,5868.217
33.4384,5913.18
33.6084,6013.769
33.7784,6187.74
33.9484,6380.79
34.1184,6418.87
34.2884,6255.11
34.4584,6055.57
34.6284,5919.54
34.7984,5847.63
34.9684,5810.89
35.1384,5789.03
35.3084,5773.76
35.4784,5770.14
35.6484,5769.81
35.8184,5763.78
35.9884,5747.97
36.1584,5733.37
36.3284,5724.45
36.4984,5718.45
36.6684,5713.42
36.8384,5708.67
37.0084,5704.35
37.1784,5699.64
37.3484,5694.71
37.5184,5705.31
37.6884,5717.92
37.8584,5735.82
38.0284,5761.51
38.1984,5793.53
38.3684,5816.349
38.5384,5816.91
38.7084,5821.16
38.8784,5857.63
39.0484,5924.76
39.2184,5975.76
39.3884,5945.617
39.5584,5863.14
39.7284,5791.01
39.8984,5746.75
40.0684,5722.06
40.2384,5708.33
40.4084,5699.59
40.5784,5691.98
40.7484,5687.11
40.9184,5687.84
41.0884,5698.02
41.2584,5717.78
41.4284,5720.49
41.5984,5700.77
41.7684,5684.418
41.9384,5677.74
42.1084,5676.01
42.2784,5676.69
42.4484,5680.24
42.6184,5688.86
42.7884,5706.933
42.9584,5729.92
43.1284,5736.85
43.2984,5716.08
43.4684,5686.2
43.6384,5662.42
43.8084,5645.7
43.9784,5630
44.1484,5625.29
44.3184,5622.12
44.4884,5619.99
44.6584,5618.54
44.8284,5616.85
44.9984,5614.8
45.1684,5611.92
45.3384,5609.13
45.5084,5607.04
45.6784,5616.1
45.8484,5624.06
46.0184,5631.0
46.1884,5636.19
46.3584,5640.77
46.5284,5644.64
46.6984,5647.05
46.8684,5648.81
47.0384,5649.84
47.2084,5649.596
47.3784,5648.65
47.5484,5647.003
47.7184,5645.38
47.8884,5643.074
48.0584,5640.08
48.2284,5635.623
48.3984,5630.42
48.5684,5624.65
48.7384,5617.26
48.9084,5614.76
49.0784,5617.29
49.2484,5626.8
49.4184,5637.29
49.5884,5650.73
49.7584,5670.34
49.9284,5701.02
50.0984,5730.01
50.2684,5731.94
50.4384,5719.849
50.6084,5714.11
50.7784,5716.65
50.9484,5724.31
51.1184,5735.18
51.2884,5750.44
51.4584,5779.89
51.6284,5844.55
51.7984,5973.75
51.9684,6175.83
52.1384,6365.62
52.3084,6364.59
52.4784,6176.5
52.6484,5971.94
52.8184,5837.073
52.9884,5767.42
53.1584,5732.77
53.3284,5710.92
53.4984,5693.94
53.6684,5678.87
53.8384,5679.79
54.0084,5682.11
54.1784,5685.76
54.3484,5695.73
54.5184,5708.48
54.6884,5729.64
54.8584,5770.26
55.0284,5842.68
55.1984,5930.55
55.3684,5963.11
55.5384,5908.48
55.7084,5826.176
55.8784,5765.51
56.0484,5733.87
56.2184,5720.32
56.3884,5712
56.5584,5703.21
56.7284,5694.04
56.8984,5685.384
57.0684,5686.18
57.2384,5698.34
57.4084,5718.86
57.5784,5754.32
57.7484,5798.77
57.9184,5828.96
58.0884,5821.689
58.2584,5785.96
58.4284,5749.05
58.5984,5725.06
58.7684,5712.36
58.9384,5704.83
59.1084,5699.45
59.2784,5695.89
59.4484,5701.17
59.6184,5703.37
59.7884,5702.766
59.9584,5700.81
60.1284,5700
60.2984,5700.01
60.4684,5698.83
60.6384,5697.045
60.8084,5694.61
60.9784,5702.47
61.1484,5709.81
61.3184,5716.69
61.4884,5722.471
61.6584,5728.367
61.8284,5735.65
61.9984,5746.56
62.1684,5766.21
62.3384,5795.2
62.5084,5820.23
62.6784,5822.11
62.8484,5805.21
63.0184,5786.1
63.1884,5768.224
63.3584,5750.93
63.5284,5736.09
63.6984,5734.48
63.8684,5746.14
64.0384,5763.22
64.2084,5780.64
64.3784,5794.31
64.5484,5813.21
64.7184,5847.38
64.8884,5889.97
65.0584,5909.77
65.2284,5891.8
65.3984,5858.7
65.5684,5833.73
65.7384,5824.43
65.9084,5830.84
66.0784,5856.29
66.2484,5908.13
66.4184,5978.25
66.5884,6019.3
66.7584,5988.24
66.9284,5913.38
67.0984,5844.81
67.2684,5800.56
67.4384,5775.47
67.6084,5765.61
67.7784,5759.84
67.9484,5755.69
68.1184,5750.45
68.2884,5745.11
68.4584,5739.52
68.6284,5734.17
68.7984,5728.3
68.9684,5721.96
69.1384,5730.03
69.3084,5738.85
69.4784,5748.97
69.6484,5773.56
69.8184,5798.33
69.9884,5817.63