File: herald_visualization/Delia_Scripts/CoF3/CoF3-100min-fit-data.csv
"No.","Pos. [°2θ]","Q [1/Å]","Icalc [cts]","Iback [cts]","ESD","D spacings","CT [s]","Intensity [Counts]"
"1","20.0084","1.4170","7218.78","7218","84.9588","4.4341","99.6950","7218"
"26","20.4334","1.4468","7061.59","7059.05","84.4508","4.3429","99.6950","7131.94"
"51","20.8584","1.4765","6899.93","6896.92","83.3932","4.2553","99.6950","6954.43"
"76","21.2834","1.5063","6780.37","6776.74","83.6701","4.1713","99.6950","7000.68"
"101","21.7084","1.5360","6687.66","6683.18","82.1015","4.0906","99.6950","6740.65"
"126","22.1334","1.5657","6591.71","6585.99","81.6229","4.0130","99.6950","6662.3"
"151","22.5584","1.5954","6493.27","6485.6","81.0213","3.9383","99.6950","6564.46"
"176","22.9834","1.6250","6393.99","6382.91","79.7534","3.8665","99.6950","6360.6"
"201","23.4084","1.6547","6311.82","6293.62","79.9642","3.7972","99.6950","6394.28"
"226","23.8334","1.6843","6307.96","6264.43","79.0393","3.7305","99.6950","6247.22"
"251","24.2584","1.7139","6490.24","6232.27","81.3566","3.6661","99.6950","6618.9"
"276","24.6834","1.7434","6478","6193.98","79.7327","3.6039","99.6950","6357.31"
"301","25.1084","1.7730","6208.96","6148.6","77.9975","3.5438","99.6950","6083.61"
"326","25.5334","1.8025","6203.88","6156.54","79.0005","3.4858","99.6950","6241.08"
"351","25.9584","1.8320","6236.01","6158.05","78.8829","3.4297","99.6950","6222.51"
"376","26.3834","1.8615","6459.42","6152.48","80.7665","3.3754","99.6950","6523.22"
"401","26.8084","1.8909","7221.37","6138.87","85.0193","3.3228","99.6950","7228.28"
"426","27.2334","1.9203","6682.29","6118.55","81.7735","3.2720","99.6950","6686.9"
"451","27.6584","1.9497","6207.33","6094.2","79.0505","3.2226","99.6950","6248.97"
"476","28.0834","1.9791","6109.66","6064.35","78.5509","3.1748","99.6950","6170.24"
"501","28.5084","2.0084","6054.95","6028.59","77.2809","3.1284","99.6950","5972.33"
"526","28.9334","2.0377","6004.84","5987.23","77.6601","3.0835","99.6950","6031.09"
"551","29.3584","2.0670","5952.4","5939.44","77.0957","3.0398","99.6950","5943.75"
"576","29.7834","2.0962","5912.8","5902.46","77.1202","2.9974","99.6950","5947.53"
"601","30.2084","2.1255","5874.73","5866.33","76.6210","2.9562","99.6950","5870.77"
"626","30.6334","2.1547","5833.03","5825.24","76.8907","2.9161","99.6950","5912.18"
"651","31.0584","2.1838","5826.69","5818.89","76.8037","2.8772","99.6950","5898.82"
"676","31.4834","2.2129","5826.56","5818.02","76.2139","2.8393","99.6950","5808.56"
"701","31.9084","2.2421","5824.41","5813.98","77.0435","2.8024","99.6950","5935.7"
"726","32.3334","2.2711","5818.45","5804.32","76.8854","2.7666","99.6950","5911.36"
"751","32.7584","2.3002","5828.44","5805.92","77.1462","2.7316","99.6950","5951.54"
"776","33.1834","2.3292","5856.19","5810.07","76.4564","2.6976","99.6950","5845.57"
"801","33.6084","2.3581","6013.77","5807.8","77.8063","2.6645","99.6950","6053.82"
"826","34.0334","2.3871","6429.9","5801.42","80.4572","2.6322","99.6950","6473.36"
"851","34.4584","2.4160","6055.57","5789.25","77.5782","2.6007","99.6950","6018.37"
"876","34.8834","2.4449","5826.32","5770.4","76.6339","2.5699","99.6950","5872.75"
"901","35.3084","2.4737","5773.76","5745.1","75.5184","2.5400","99.6950","5703.03"
"926","35.7334","2.5025","5768.19","5730.61","75.8777","2.5107","99.6950","5757.42"
"951","36.1584","2.5313","5733.37","5714.97","75.7305","2.4822","99.6950","5735.11"
"976","36.5834","2.5601","5715.98","5705.27","75.8333","2.4543","99.6950","5750.69"
"1001","37.0084","2.5888","5704.35","5694.09","75.8749","2.4271","99.6950","5757.01"
"1026","37.4334","2.6174","5699.79","5686.72","76.4121","2.4005","99.6950","5838.8"
"1051","37.8584","2.6461","5735.82","5704.88","76.3020","2.3745","99.6950","5821.99"
"1076","38.2834","2.6747","5807.41","5715.53","76.2214","2.3492","99.6950","5809.7"
"1101","38.7084","2.7032","5821.16","5719.95","76.5392","2.3243","99.6950","5858.24"
"1126","39.1334","2.7317","5957.71","5720.76","76.7544","2.3001","99.6950","5891.24"
"1151","39.5584","2.7602","5863.14","5713.39","76.2008","2.2763","99.6950","5806.56"
"1176","39.9834","2.7887","5732.54","5699.19","74.9496","2.2531","99.6950","5617.45"
"1201","40.4084","2.8171","5699.59","5683.45","75.6130","2.2304","99.6950","5717.33"
"1226","40.8334","2.8455","5686.62","5666.27","75.2187","2.2081","99.6950","5657.85"
"1251","41.2584","2.8738","5717.78","5652.82","75.2535","2.1864","99.6950","5663.09"
"1276","41.6834","2.9021","5691.54","5661.55","75.3425","2.1651","99.6950","5676.49"
"1301","42.1084","2.9303","5676.01","5665.22","74.9890","2.1442","99.6950","5623.35"
"1326","42.5334","2.9586","5683.47","5663.16","74.4273","2.1237","99.6950","5539.43"
"1351","42.9584","2.9867","5729.92","5657.04","75.1333","2.1037","99.6950","5645.01"
"1376","43.3834","3.0149","5700.73","5644.99","75.7758","2.0841","99.6950","5741.97"
"1401","43.8084","3.0429","5645.7","5625.7","75.1756","2.0648","99.6950","5651.38"
"1426","44.2334","3.0710","5623.72","5616.85","75.0191","2.0460","99.6950","5627.87"
"1451","44.6584","3.0990","5618.54","5615.23","75.3525","2.0275","99.6950","5678"
"1476","45.0834","3.1270","5613.38","5611.16","75.8197","2.0094","99.6950","5748.62"
"1501","45.5084","3.1549","5607.04","5604.85","75.0510","1.9916","99.6950","5632.65"
"1526","45.9334","3.1828","5627.64","5625.34","75.3343","1.9741","99.6950","5675.26"
"1551","46.3584","3.2106","5640.77","5638.8","75.4322","1.9570","99.6950","5690.02"
"1576","46.7834","3.2384","5648.27","5646.19","75.3448","1.9402","99.6950","5676.84"
"1601","47.2084","3.2661","5649.6","5647.37","75.7226","1.9237","99.6950","5733.91"
"1626","47.6334","3.2938","5646.19","5643.61","74.6838","1.9076","99.6950","5577.67"
"1651","48.0584","3.3215","5640.08","5636.95","75.4738","1.8917","99.6950","5696.29"
"1676","48.4834","3.3491","5627.44","5623.46","75.0391","1.8761","99.6950","5630.86"
"1701","48.9084","3.3766","5614.76","5609.05","75.0895","1.8608","99.6950","5638.44"
"1726","49.3334","3.4042","5631.86","5622.93","75.1275","1.8457","99.6950","5644.14"
"1751","49.7584","3.4316","5670.34","5642.25","75.4312","1.8310","99.6950","5689.87"
"1776","50.1834","3.4590","5734.3","5665.46","74.7502","1.8165","99.6950","5587.59"
"1801","50.6084","3.4864","5714.11","5685.23","75.9740","1.8022","99.6950","5772.05"
"1826","51.0334","3.5137","5729.24","5698.64","75.5424","1.7882","99.6950","5706.66"
"1851","51.4584","3.5410","5779.89","5706.84","76.3170","1.7744","99.6950","5824.29"
"1876","51.8834","3.5682","6068.11","5712","77.3609","1.7609","99.6950","5984.71"
"1901","52.3084","3.5954","6364.59","5710.02","79.4645","1.7475","99.6950","6314.61"
"1926","52.7334","3.6226","5894.65","5701.05","76.6292","1.7345","99.6950","5872.03"
"1951","53.1584","3.6496","5732.77","5684.6","76.9111","1.7216","99.6950","5915.32"
"1976","53.5834","3.6767","5686.14","5659.89","74.8921","1.7089","99.6950","5608.83"
"2001","54.0084","3.7036","5682.11","5661.22","75.3467","1.6965","99.6950","5677.13"
"2026","54.4334","3.7306","5701.81","5676.5","75.4294","1.6842","99.6950","5689.59"
"2051","54.8584","3.7575","5770.26","5690.95","76.2462","1.6722","99.6950","5813.48"
"2076","55.2834","3.7843","5958.3","5698.2","78.0946","1.6603","99.6950","6098.77"
"2101","55.7084","3.8110","5826.18","5698.2","76.3093","1.6487","99.6950","5823.11"
"2126","56.1334","3.8378","5725.59","5692.26","75.2194","1.6372","99.6950","5657.96"
"2151","56.5584","3.8644","5703.21","5682.18","76.3048","1.6259","99.6950","5822.42"
"2176","56.9834","3.8911","5682","5665.8","75.1174","1.6148","99.6950","5642.63"
"2201","57.4084","3.9176","5718.86","5680.3","75.5776","1.6038","99.6950","5711.97"
"2226","57.8334","3.9441","5817.39","5689.6","76.1741","1.5931","99.6950","5802.5"
"2251","58.2584","3.9706","5785.96","5695.95","77.1369","1.5824","99.6950","5950.11"
"2276","58.6834","3.9970","5717.54","5695.68","75.0456","1.5720","99.6950","5631.84"
"2301","59.1084","4.0233","5699.45","5689.19","75.6281","1.5617","99.6950","5719.62"
"2326","59.5334","4.0496","5703.06","5690.6","76.2367","1.5516","99.6950","5812.04"
"2351","59.9584","4.0758","5700.81","5694.35","75.6908","1.5416","99.6950","5729.1"
"2376","60.3834","4.1020","5699.39","5694.98","76.0171","1.5317","99.6950","5778.6"
"2401","60.8084","4.1281","5694.61","5690.13","75.3273","1.5220","99.6950","5674.2"
"2426","61.2334","4.1542","5713.21","5707.78","74.8086","1.5125","99.6950","5596.33"
"2451","61.6584","4.1802","5728.37","5719.57","75.9188","1.5031","99.6950","5763.66"
"2476","62.0834","4.2062","5755.16","5725.82","76.4257","1.4938","99.6950","5840.89"
"2501","62.5084","4.2320","5820.23","5729.37","76.1432","1.4847","99.6950","5797.79"
"2526","62.9334","4.2579","5795.23","5727.64","75.8030","1.4757","99.6950","5746.09"
"2551","63.3584","4.2837","5750.93","5720.28","76.7072","1.4668","99.6950","5883.99"
"2576","63.7834","4.3094","5739.56","5721.17","76.3634","1.4580","99.6950","5831.36"
"2601","64.2084","4.3350","5780.64","5743.43","76.4357","1.4494","99.6950","5842.41"
"2626","64.6334","4.3606","5828.57","5762.27","76.7402","1.4409","99.6950","5889.05"
"2651","65.0584","4.3862","5909.77","5774.5","76.6909","1.4325","99.6950","5881.5"
"2676","65.4834","4.4116","5844.24","5783.82","76.2752","1.4242","99.6950","5817.91"
"2701","65.9084","4.4370","5830.84","5787.9","76.0815","1.4161","99.6950","5788.39"
"2726","66.3334","4.4624","5942.63","5784.52","77.0447","1.4080","99.6950","5935.88"
"2751","66.7584","4.4877","5988.24","5774.79","77.2527","1.4001","99.6950","5967.97"
"2776","67.1834","4.5129","5819.95","5761.49","76.0994","1.3923","99.6950","5791.11"
"2801","67.6084","4.5381","5765.61","5749.71","75.6551","1.3845","99.6950","5723.7"
"2826","68.0334","4.5632","5753","5744.62","75.9807","1.3769","99.6950","5773.07"
"2851","68.4584","4.5882","5739.52","5734.01","76.0470","1.3694","99.6950","5783.15"
"2876","68.8834","4.6132","5725.1","5720.82","75.4767","1.3620","99.6950","5696.73"
"2901","69.3084","4.6381","5738.85","5733.61","75.4373","1.3547","99.6950","5690.79"
"2926","69.7334","4.6630","5786.14","5772.6","76.9089","1.3475","99.6950","5914.98"
"2941","69.9884","4.6779","5817.63","5801.59","76.1818","1.3432","99.6950","5803.66"