File: herald_visualization/Delia_Scripts/CoF3/Graphite_ref.csv
2Theta,Intensity
26.544,100
42.363,7
44.561,6
50.698,1
54.663,7
59.893,1
77.49,12
83.616,5
87.053,1
94.064,1
101.828,2