File: herald_visualization/XRD Plotting Scripts (Riley)/Figures/LiFeF2/FeF2.csv
2Theta (degrees),Intensity
27.1228,100.0
33.0341,63.2373
38.4306,23.4057
38.7337,7.33356
43.5247,6.19612
51.8,70.3213
55.0178,13.8887
55.9356,19.5197
62.3964,15.9348
63.0344,0.609272
63.2463,9.77836
66.5174,24.8187
69.3056,3.10037
69.9106,1.73389
72.6385,1.71231
73.429,0.290327
79.7157,5.5622
82.3312,10.697
83.0935,3.82709
86.2579,1.18803
88.6547,7.50469
89.411,4.47533