File: herald_visualization/XRD Plotting Scripts (Riley)/Figures/LiFeF2/LiFeF3_1176698.csv
2Theta (degrees),Intensity
19.9486,34.4429
19.9981,34.7022
20.3586,33.541
27.2334,100.0
27.2491,99.9343
27.2539,99.6655
27.3025,99.3483
27.5165,98.8705
27.5802,98.9536
34.7273,25.6022
35.3769,22.8557
35.4645,21.3158
37.217,0.475912
39.5479,34.3405
39.5716,34.2531
40.1136,32.2752
40.1704,32.1663
40.1806,31.3419
40.2607,31.1762
40.5361,12.0514
40.6401,11.8596
41.3981,11.2931
42.568,8.91942
42.5706,8.74797
42.5892,8.77149
42.6365,8.62396
42.7436,7.9495
42.8303,7.50521
44.8293,24.6673
44.8497,24.7542
44.9038,24.341
44.967,24.3949
45.5942,22.3477
45.6766,22.3863
51.7942,47.7434
51.8327,47.6399
52.2403,47.4266
52.2853,48.3544
52.3329,47.2073
52.4161,47.9602
54.2648,3.62212
54.3273,3.29892
55.0272,3.85387
55.1922,3.92247
55.5428,2.69864
55.6454,2.69078
56.1791,1.30355
56.2137,1.32064
56.2242,1.35874
56.3314,1.35452
56.8034,1.68419
56.9442,1.76734
57.7782,10.9266
57.7876,10.9116
57.8208,11.0159
57.865,10.9845
58.4893,10.2853
58.5407,10.1305
58.6302,10.2307
58.7169,10.0402
58.9721,10.5617
59.0492,10.4156
59.062,10.5158
59.1567,10.3693
61.1789,8.85719
61.1854,8.74392
61.21,8.67764
61.2552,8.76748
61.3084,8.89883
61.4092,8.8457
62.6133,40.5466
62.7847,40.2137
64.0364,37.8989
65.8411,0.00413934
65.8647,0.00429271
65.9831,0.0122947
66.0563,0.0121114
67.191,0.0076124
67.2869,0.00874122
67.6335,1.22596
67.6507,1.16283
67.6565,1.24623
67.7374,1.30359
68.2657,1.15451
68.36,1.14957
68.3788,1.09206
68.538,1.07696
68.6504,4.25723
68.6973,1.07905
68.6991,4.23709
68.7719,1.07759
68.8391,1.08398
68.946,1.09021
69.0158,4.09878
69.0459,4.00087
69.1335,4.08658
69.2121,3.98256
72.4125,5.16308
72.4359,5.16842
72.4576,5.16129
72.5762,5.13747
72.9344,4.88714
73.1193,4.7907
73.2921,2.98281
74.8442,2.98715
75.0544,3.20728
75.1245,0.585601
75.169,0.578495
75.2351,0.577268
75.3734,0.573991
76.2997,2.4006
76.3308,2.39555
76.3675,0.528295
76.5493,0.51882
76.9262,0.401457
77.0651,0.37021
77.8089,2.43542
77.8183,0.442855
77.8839,2.43502
78.0011,2.54896
78.0778,0.485915
78.1069,2.54396
78.9722,0.565062
79.0928,0.546459
79.3153,18.4468
79.9038,3.9032
79.9046,3.95554
80.0114,3.90277
80.072,3.84947
80.7615,3.87103
80.8131,3.92094
80.9955,3.80705
81.0931,3.83649
81.8823,3.42909
81.9788,3.39692
81.9943,3.40919
82.106,3.38583
82.7593,3.51891
82.7659,3.52815
82.7681,0.590695
82.7815,0.581546
82.7834,3.54382
82.8104,0.625681
82.858,0.625442
82.879,0.581459
82.8791,3.49541
82.9977,0.617196
83.3315,3.35691
83.4221,3.35385
83.4638,3.3468
83.6457,3.34005
83.7245,3.52885
83.7867,3.45873
83.9239,3.53909
84.0318,3.46552
85.1602,9.43441
85.2209,9.41033
86.6133,8.77801
86.7601,8.74641
86.7864,8.41835
86.9937,8.37828
87.7083,0.175512
87.9792,0.18807
88.7067,1.08982
88.7082,1.07786
88.7831,1.14401
88.9026,1.15699
89.5271,0.924596
89.5528,1.9932
89.6133,1.98933
89.6291,0.88638
89.7356,0.888658
89.8656,0.00133358
89.8829,1.90303
89.9034,1.82364
89.9282,0.848524
89.9301,0.00188491
89.9498,0.00397291
89.9694,0.169606