File: herald_visualization/XRD Plotting Scripts (Riley)/Figures/LiFeF2/LiFeF3_780639.csv
2Theta (degrees),Intensity
17.9386,100.0
21.608,0.817498
24.0274,53.8266
27.8346,11.4724
30.1472,64.0162
30.386,0.0328792
33.2974,29.5312
33.3278,22.6395
35.4946,12.3866
35.5234,12.4973
36.3368,0.139993
37.0937,3.18827
38.3822,0.0129852
40.8498,22.1539
41.4803,18.3562
41.5055,15.3682
44.0363,12.3708
46.3589,12.5376
46.405,12.2163
46.4222,0.064075
48.0504,0.173696
48.0953,0.308786
49.2012,11.7289
50.1431,1.16592
50.1649,1.08728
52.368,0.0723748
52.7862,9.47162
52.8797,33.6285
52.9216,33.4547
55.7723,2.49724
57.2605,0.00204472
57.4725,13.1285
57.5069,15.6117
58.9667,0.0287221
60.3185,0.103781
60.7096,8.46755
60.7287,8.54151
60.7333,2.47844
60.7715,3.82587
61.5863,8.1628
62.1464,0.0345165
62.1841,0.031644
62.6805,4.60092
63.2211,5.77677
63.4346,2.78652
63.4905,3.53327
64.8141,1.67103
64.8694,1.62972
65.8058,0.17478
66.2825,4.8816
66.319,6.68388
68.4371,2.48803
68.8648,4.71602
68.9184,5.28293
69.9071,1.4078
69.9202,0.144482
69.9426,1.39174
69.9559,0.00846916
69.9867,0.0348733
69.9912,0.163152
71.2363,0.0142076
71.3067,0.00603062
72.8859,1.90554
72.9033,1.91392
72.9074,2.42491
72.9424,2.33194
75.1269,2.27583
75.1959,2.33479
75.3887,0.147325
75.4405,0.131431
77.1622,5.21216
77.2816,0.0606129
77.5324,2.16308
78.432,0.0684662
79.0121,4.84105
80.1222,3.01455
81.4552,0.0232635
81.4676,0.00244487
81.4889,0.0767539
81.5351,0.06712
81.8202,2.4361
81.8539,2.2131
82.21,2.84757
83.8533,0.520442
83.9204,0.546832
84.004,3.87138
84.2249,2.32527
84.2289,0.929998
84.2752,2.31267
84.3295,0.562703
85.1003,0.0107878
85.1673,0.0259045
85.4751,0.00163184
86.7902,1.6492
86.8069,2.02302
88.4395,0.142208
88.5269,5.4649
88.8009,0.128269
88.8296,0.522939
88.8964,0.543359
89.2032,3.02515
89.3033,2.33344