File: herald_visualization/XRD Plotting Scripts (Riley)/Figures/LiFeF2/LiFeF3_1176706.csv
2Theta (degrees),Intensity
18.0024,100.0
21.6921,0.893906
24.1384,56.1156
27.6741,12.0587
27.876,0.00679389
30.2763,65.2746
33.2122,56.2663
33.3836,0.00500809
35.4336,26.2591
36.4694,0.140911
37.0449,3.24328
38.527,0.0255936
41.0354,22.8091
41.0867,0.0469259
41.4782,36.3551
43.4725,0.00196467
44.2144,12.7448
46.3874,26.0645
48.0934,0.379335
49.0675,0.00124672
49.4402,12.2177
50.215,2.36981
51.5639,0.00186841
52.5957,0.0278791
52.9624,70.5048
53.038,9.77776
55.0623,0.0132807
55.9861,2.93018
57.1518,16.9399
57.4841,0.00147917
57.5988,13.5373
58.3369,0.0128337
60.4318,6.441
60.4595,0.0980285
60.8637,17.5597
61.8388,8.76358
61.8618,0.0653519
62.9366,6.27207
62.9726,4.66643
63.5768,6.13349
63.6819,0.0165604
64.9672,3.46624
66.045,12.0509
66.1374,0.187552
67.9172,0.00188525
68.7367,2.57718
69.0497,9.79439
69.7211,0.293674
69.8857,0.00557433
70.1219,2.96968
70.4849,0.00141073
71.0507,0.00237613
72.7393,5.15445
73.1331,4.02808
74.9803,4.76595
75.6255,0.290914
77.4847,5.42461
77.6101,0.00776643
77.6993,0.0679865
77.8991,2.24714
78.7646,0.0844221
78.8921,5.13223
79.5699,0.00553102
80.4307,0.0123779
80.5559,3.17542
81.3817,0.00809246
81.738,4.88833
81.7623,0.0628152
82.5732,2.95692
84.1282,1.10527
84.1566,1.71144
84.3388,3.98581
84.535,4.90403
85.3859,0.0175291
85.4144,0.00136147
86.1388,0.00296395
87.1518,3.74913
88.8563,0.0932812
89.0135,5.63644
89.1483,1.072
89.1767,5.78733
89.2611,0.135561