File: herald_visualization/XRD_Plotting/Figures/Fe0p56Mn0p44F3_SuperP/FeF3.csv
2Theta (degrees),Intensity
24.3182,100
24.3963,48.7648
33.5825,11.3439
33.7002,23.6377
35.7069,7.93452
35.7083,3.37709
39.3094,0.0121219
40.205,0.00364674
41.0796,10.959
41.1549,10.4016
41.2276,11.1211
42.0155,0.00115183
43.6258,3.20054
43.7214,6.70477
49.8277,17.1879
49.996,8.18181
52.0411,0.00494132
54.2448,0.00319708
54.7285,14.2391
54.8487,14.9787
54.9667,14.1802
56.2701,0.621083
56.3117,0.611992
56.3296,0.603487
57.5978,6.30795
57.6378,5.76881
57.7121,6.09869
58.797,4.20311
58.9484,2.26343
62.7255,4.52166
62.874,4.52416
62.9454,4.48984
64.1477,5.98509
64.1504,11.9951
66.4734,0.349609
66.5634,0.291822
66.7378,0.295457
67.8028,0.00367602
67.908,0.00470378
70.5879,2.70209
70.8642,4.91467
73.5621,1.14413
73.5637,1.78127
73.7152,1.11487
73.7332,3.28405
73.8665,1.22147
75.6377,1.29839
75.6411,0.74893
75.9305,0.200507
76.1669,0.198941
76.2825,0.161303
78.2763,0.166037
78.3783,0.31345
78.5771,0.284561
78.6739,0.136383
79.0072,0.568038
79.1097,0.643901
79.2055,0.589132
79.6724,0.341944
79.6908,0.291336
79.7362,0.326125
80.7655,3.31594
80.8682,3.44997
80.8992,3.20026
81.6999,1.86184
81.7047,0.0032401
81.8324,2.15484
82.0925,1.93839
84.5517,0.932401
84.8767,0.536385
85.282,1.00759
85.3491,0.901022
85.5404,0.990333
86.8496,2.69035
88.5881,0.257004
88.8357,0.187498
88.915,0.236059
89.1296,2.53283
89.3277,2.36901
89.5192,2.60596