File: herald_visualization/XRD_Plotting/Figures/Fe0p56Mn0p44F3_SuperP/MnF2.csv
2Theta (degrees),Intensity
23.652,35.2883
28.9959,100.0
30.7952,3.95454
33.4237,8.46237
35.149,10.6575
36.3903,1.87572
38.1989,10.3995
39.7442,19.2875
41.3559,9.45513
43.2476,0.382654
46.0824,7.34877
48.3946,7.66536
49.8439,0.513827
50.2369,24.6791
50.6538,13.8849
51.4899,31.3248
52.8168,0.270408
53.654,0.323392
57.0508,15.2931
58.2653,0.677951
60.0914,3.20995
60.8631,14.6407
61.011,12.6988
62.0549,12.8113
63.4867,0.199302
64.0143,0.0426088
64.1503,2.58437
66.6806,1.12306
66.7548,5.84807
67.7348,2.23343
68.8625,3.12665
69.7623,0.577847
70.2156,1.3458
71.1936,0.0203996
73.0287,0.684982
73.1582,1.11276
74.2981,0.0503333
74.8171,0.00242289
75.2347,0.0888326
75.2572,1.47103
75.8777,2.90599
76.0541,0.0257853
77.1805,1.11577
77.2924,3.70154
78.4829,3.97645
78.6101,1.14579
81.148,3.25365
81.4465,0.0952431
81.751,4.09592
81.7564,0.12537
83.787,0.0568982
85.4701,0.462117
85.4911,5.45945
85.6628,2.15485
85.985,0.747036
86.3359,1.04311
86.8703,1.30566
87.241,0.0118715
87.8432,1.812
88.357,2.83433
88.8914,0.14296
89.1316,0.00324629
89.858,1.11654