File: herald_visualization/Delia_Scripts/FeF3_1to1_KS6Lgraphite/240828-FeF3_1to1_KS6Lgraphite-0min_milled-20-70deg_40min.csv
2Theta,Intensity
20.0254,6758.76
20.1954,6651.55
20.3654,6528.74
20.5354,6336.51
20.7054,6388.26
20.8754,6364.39
21.0454,6230.29
21.2154,6214.17
21.3854,6212.36
21.5554,6006.84
21.7254,5976.86
21.8954,5810.23
22.0654,5737.22
22.2354,5768.63
22.4054,5676.14
22.5754,5564.87
22.7454,5537.32
22.9154,5644.26
23.0854,5588.16
23.2554,5575.5
23.4254,5894.62
23.5954,7590.56
23.7654,17041.1
23.9354,12301.7
24.1054,5822.02
24.2754,5318.83
24.4454,5163.45
24.6154,5081.27
24.7854,4922.37
24.9554,5071.11
25.1254,4908.82
25.2954,5000.43
25.4654,4970.67
25.6354,4900.78
25.8054,4976.9
25.9754,4993.64
26.1454,5115.17
26.3154,5209.31
26.4854,6192.01
26.6554,5710.69
26.8254,5072.19
26.9954,4858.2
27.1654,4783.65
27.3354,4883.37
27.5054,4764.7
27.6754,4694.36
27.8454,4763.22
28.0154,4553.13
28.1854,4608.53
28.3554,4626.32
28.5254,4534.16
28.6954,4563.05
28.8654,4483.09
29.0354,4556.51
29.2054,4437.55
29.3754,4481.44
29.5454,4430.11
29.7154,4409.29
29.8854,4391.76
30.0554,4357.24
30.2254,4368.69
30.3954,4425.33
30.5654,4342.69
30.7354,4286.42
30.9054,4228.47
31.0754,4209.09
31.2454,4270.25
31.4154,4214.89
31.5854,4191.15
31.7554,4191.67
31.9254,4283.52
32.0954,4204.36
32.2654,4094.63
32.4354,4154.98
32.6054,4171.12
32.7754,4105.59
32.9454,4190.52
33.1154,4201.72
33.2854,4550.1
33.4554,6025.34
33.6254,4578.83
33.7954,4273.44
33.9654,4247.41
34.1354,4279.59
34.3054,4478.67
34.4754,4738.48
34.6454,4172.97
34.8154,4014.22
34.9854,3968.98
35.1554,3895.76
35.3254,3994.81
35.4954,3974.41
35.6654,3946.01
35.8354,3855.56
36.0054,3865.8
36.1754,3884.43
36.3454,3892.02
36.5154,3933.12
36.6854,3822.77
36.8554,3914.99
37.0254,3890.54
37.1954,3827.46
37.3654,3899.75
37.5354,3817.26
37.7054,3906.66
37.8754,3869.71
38.0454,3797.18
38.2154,3853.76
38.3854,3823.66
38.5554,3807.8
38.7254,3827.66
38.8954,3829.68
39.0654,3738.36
39.2354,3788.08
39.4054,3849.01
39.5754,3776.25
39.7454,3927.85
39.9154,4142.77
40.0854,4911.01
40.2554,4784.33
40.4254,3987.48
40.5954,3811.84
40.7654,3915.13
40.9354,3770.21
41.1054,3786.49
41.2754,3746.3
41.4454,3676.8
41.6154,3763.27
41.7854,3846.99
41.9554,3732.05
42.1254,3794.6
42.2954,3848.76
42.4654,3880.26
42.6354,3682.73
42.8054,3803.35
42.9754,3767.22
43.1454,3626.86
43.3154,3694.25
43.4854,3684.75
43.6554,3643.2
43.8254,3706.44
43.9954,3746.81
44.1654,3627.31
44.3354,3640.76
44.5054,3674.91
44.6754,3785.02
44.8454,3674.65
45.0154,3613.58
45.1854,3613.18
45.3554,3658.25
45.5254,3620.8
45.6954,3503.82
45.8654,3684.6
46.0354,3597.34
46.2054,3632.86
46.3754,3663.54
46.5454,3703.97
46.7154,3630.71
46.8854,3664.95
47.0554,3652.44
47.2254,3657.46
47.3954,3626.38
47.5654,3682.78
47.7354,3617.56
47.9054,3561.5
48.0754,3725.69
48.2454,3746.58
48.4154,3906.65
48.5854,4650.76
48.7554,5997.58
48.9254,4784.05
49.0954,3759.05
49.2654,3595.88
49.4354,3564.73
49.6054,3439.06
49.7754,3621.24
49.9454,3550.45
50.1154,3561.12
50.2854,3584.94
50.4554,3628.86
50.6254,3463.34
50.7954,3492.13
50.9654,3592.24
51.1354,3540.09
51.3054,3448.41
51.4754,3586.11
51.6454,3441.15
51.8154,3427.3
51.9854,3467.55
52.1554,3505.12
52.3254,3436.08
52.4954,3420.42
52.6654,3570.97
52.8354,3506.13
53.0054,3483.06
53.1754,3556.32
53.3454,3455.7
53.5154,3469.42
53.6854,3479.61
53.8554,3698.39
54.0254,3988.91
54.1954,5111.18
54.3654,5172.4
54.5354,4190.55
54.7054,3785.02
54.8754,3589.71
55.0454,3490.62
55.2154,3776.56
55.3854,3897.53
55.5554,4071.01
55.7254,4342.91
55.8954,3841.47
56.0654,3557.6
56.2354,3440.05
56.4054,3407.96
56.5754,3419.78
56.7454,3456.66
56.9154,3441.49
57.0854,3472.24
57.2554,3415.55
57.4254,3397.73
57.5954,3433.62
57.7654,3436.98
57.9354,3427.31
58.1054,3372.49
58.2754,3449.57
58.4454,3539.21
58.6154,3421.54
58.7854,3378.97
58.9554,3483.77
59.1254,3596.9
59.2954,3517.07
59.4654,3479.62
59.6354,3461.75
59.8054,3350.03
59.9754,3430
60.1454,3379.68
60.3154,3437.53
60.4854,3539.12
60.6554,3422.38
60.8254,3632.58
60.9954,3746.13
61.1654,3876.01
61.3354,3749.08
61.5054,3643.14
61.6754,3734.54
61.8454,3725.49
62.0154,3552.19
62.1854,3352.12
62.3554,3480.03
62.5254,3369.44
62.6954,3401.35
62.8654,3346.29
63.0354,3388.74
63.2054,3327.54
63.3754,3410.59
63.5454,3345.17
63.7154,3300.32
63.8854,3376.11
64.0554,3385.25
64.2254,3235.48
64.3954,3416.32
64.5654,3370.99
64.7354,3429.72
64.9054,3439.43
65.0754,3493.01
65.2454,3404.94
65.4154,3294.53
65.5854,3368.81
65.7554,3392.86
65.9254,3280.31
66.0954,3325.18
66.2654,3289.62
66.4354,3376.07
66.6054,3308.51
66.7754,3318.11
66.9454,3346.45
67.1154,3273.82
67.2854,3377.5
67.4554,3417.43
67.6254,3349.39
67.7954,3310.24
67.9654,3292.98
68.1354,3285.82
68.3054,3415.71
68.4754,3343.6
68.6454,3305.05
68.8154,3316.95
68.9854,3394.65
69.1554,3332.59
69.3254,3278.36
69.4954,3347.69
69.6654,3310.63
69.8354,3356.19
69.9884,3469.7