File: herald_visualization/Delia_Scripts/FeF3_1to1_KS6Lgraphite/240828-FeF3_1to1_KS6Lgraphite-100min_milled-20-70deg_40min.csv
2Theta,Intensity
20.0254,6562.04
20.1954,6646.76
20.3654,6548.58
20.5354,6422.37
20.7054,6367.72
20.8754,6183.32
21.0454,6204.25
21.2154,6063.99
21.3854,6138.9
21.5554,6008.22
21.7254,5903.4
21.8954,5807.34
22.0654,5681.12
22.2354,5744.88
22.4054,5699.01
22.5754,5611.1
22.7454,5634.55
22.9154,5786.23
23.0854,5784.91
23.2554,6125.2
23.4254,6420.64
23.5954,7487.46
23.7654,8914
23.9354,9069.26
24.1054,7954.77
24.2754,6703.26
24.4454,5888.07
24.6154,5578.3
24.7854,5202.61
24.9554,5143.56
25.1254,5220.78
25.2954,5007.71
25.4654,5061.58
25.6354,4947.71
25.8054,4841.27
25.9754,4993.14
26.1454,4948.31
26.3154,4858.28
26.4854,4857.68
26.6554,4939.02
26.8254,4748.1
26.9954,4831.58
27.1654,4798.23
27.3354,4788.69
27.5054,4757.11
27.6754,4654.79
27.8454,4735.65
28.0154,4653.19
28.1854,4689.12
28.3554,4717.78
28.5254,4586.04
28.6954,4598.45
28.8654,4468.22
29.0354,4441.26
29.2054,4479.22
29.3754,4550.04
29.5454,4427.82
29.7154,4473.23
29.8854,4532.17
30.0554,4413.87
30.2254,4393.2
30.3954,4385.08
30.5654,4339.56
30.7354,4357.36
30.9054,4495.11
31.0754,4398.98
31.2454,4305.84
31.4154,4246.82
31.5854,4309.71
31.7554,4259.85
31.9254,4425.17
32.0954,4196.47
32.2654,4184.72
32.4354,4225.33
32.6054,4254.77
32.7754,4325.47
32.9454,4408.44
33.1154,4387.67
33.2854,4625.86
33.4554,4609.34
33.6254,4635.69
33.7954,4643.17
33.9654,4460.02
34.1354,4313.24
34.3054,4407.32
34.4754,4412.63
34.6454,4286.24
34.8154,4323.39
34.9854,4239.53
35.1554,4164.99
35.3254,4156.54
35.4954,4157.76
35.6654,4052.83
35.8354,4030.51
36.0054,4143.36
36.1754,4040.43
36.3454,3981.17
36.5154,4050.26
36.6854,3924.37
36.8554,4071.05
37.0254,4022.45
37.1954,4059.43
37.3654,3979.2
37.5354,3969.98
37.7054,4084.73
37.8754,3986.91
38.0454,4081.56
38.2154,4078.5
38.3854,3969.79
38.5554,4032.2
38.7254,4012.86
38.8954,3961.33
39.0654,4007.46
39.2354,4037.66
39.4054,3974.95
39.5754,4064.66
39.7454,3966.11
39.9154,4197.75
40.0854,4255.31
40.2554,4371.76
40.4254,4347.73
40.5954,4262.24
40.7654,4253.57
40.9354,4094.77
41.1054,4025.87
41.2754,4057.32
41.4454,4050.72
41.6154,3955.32
41.7854,3915.25
41.9554,4001.84
42.1254,3959.43
42.2954,3996.09
42.4654,3972.53
42.6354,4044.57
42.8054,3897.52
42.9754,4017.74
43.1454,3921.36
43.3154,3945.63
43.4854,4008.3
43.6554,3998.34
43.8254,3993.88
43.9954,3873.88
44.1654,3900.05
44.3354,3936.24
44.5054,3895.16
44.6754,3884.6
44.8454,3845.88
45.0154,3889.85
45.1854,3897.87
45.3554,3830.13
45.5254,3862.02
45.6954,3767.02
45.8654,3809.26
46.0354,3921.22
46.2054,3799.03
46.3754,3855.04
46.5454,3816.48
46.7154,3825.46
46.8854,3817.32
47.0554,3842.73
47.2254,3879.5
47.3954,3876.64
47.5654,3856.01
47.7354,3921.21
47.9054,3831.31
48.0754,3938.87
48.2454,4132.06
48.4154,4093.45
48.5854,4284.75
48.7554,4543.91
48.9254,4519.19
49.0954,4349.47
49.2654,4219.2
49.4354,3985.82
49.6054,4017.81
49.7754,3926.9
49.9454,3849.37
50.1154,3804.11
50.2854,3740.37
50.4554,3776.94
50.6254,3815.3
50.7954,3766.56
50.9654,3794.17
51.1354,3773.79
51.3054,3778.59
51.4754,3794.87
51.6454,3832.47
51.8154,3793.07
51.9854,3805.46
52.1554,3760.83
52.3254,3844.38
52.4954,3667.6
52.6654,3768.89
52.8354,3799.24
53.0054,3783.57
53.1754,3906.09
53.3454,3880.29
53.5154,3880.82
53.6854,3999.91
53.8554,4199.8
54.0254,4167.79
54.1954,4395.17
54.3654,4326.17
54.5354,4504.28
54.7054,4361.62
54.8754,4282.25
55.0454,4111.4
55.2154,3999.72
55.3854,4021.9
55.5554,4089.85
55.7254,3966.24
55.8954,4046.59
56.0654,4036.38
56.2354,4006.75
56.4054,3808.27
56.5754,3832.85
56.7454,3831.72
56.9154,3794.41
57.0854,3685.81
57.2554,3701.17
57.4254,3707.89
57.5954,3745.47
57.7654,3739.99
57.9354,3644.72
58.1054,3769.81
58.2754,3772.33
58.4454,3724.66
58.6154,3717.77
58.7854,3780.21
58.9554,3724.66
59.1254,3823.78
59.2954,3825.07
59.4654,3651.42
59.6354,3728.13
59.8054,3686.35
59.9754,3776.52
60.1454,3817.32
60.3154,3811.82
60.4854,3819.07
60.6554,3762.55
60.8254,3749.24
60.9954,3814.44
61.1654,3857.1
61.3354,3902.06
61.5054,3862.04
61.6754,3952.81
61.8454,3868.51
62.0154,3823.44
62.1854,3863.84
62.3554,3897.26
62.5254,3797.05
62.6954,3801.3
62.8654,3772.95
63.0354,3741.97
63.2054,3777.54
63.3754,3874.88
63.5454,3697.97
63.7154,3666.66
63.8854,3684.8
64.0554,3670.81
64.2254,3731.33
64.3954,3702.42
64.5654,3712.95
64.7354,3596.2
64.9054,3670.57
65.0754,3629.17
65.2454,3694.07
65.4154,3724.26
65.5854,3643.18
65.7554,3654.46
65.9254,3741.98
66.0954,3715.81
66.2654,3642.63
66.4354,3760.07
66.6054,3638.76
66.7754,3737.67
66.9454,3711.39
67.1154,3591.25
67.2854,3797.49
67.4554,3647.1
67.6254,3637.4
67.7954,3673.19
67.9654,3612.01
68.1354,3644.18
68.3054,3679.14
68.4754,3729.2
68.6454,3754.76
68.8154,3691.1
68.9854,3634.79
69.1554,3729.43
69.3254,3700.24
69.4954,3763.94
69.6654,3690.61
69.8354,3723.29
69.9884,3709.04