File: herald_visualization/Delia_Scripts/MnF3/MnF3_1to1_KS6Lgraphite/20mins/240925-MnF3_1to1_KS6Lgraphite-20min_milled-20-70deg_40min.csv
2Theta,Intensity
20.0254,7834.28
20.1954,7667.56
20.3654,7608.04
20.5354,7441.77
20.7054,7332.66
20.8754,7235.3
21.0454,6954.5
21.2154,6920.56
21.3854,6741.91
21.5554,6679.98
21.7254,6511.38
21.8954,6412.2
22.0654,6417.5
22.2354,6310.03
22.4054,6087.3
22.5754,6056.8
22.7454,6049.58
22.9154,6119.22
23.0854,6212.4
23.2554,6160.7
23.4254,6418.84
23.5954,7099.92
23.7654,8409
23.9354,10175.1
24.1054,10200.2
24.2754,8941.67
24.4454,7848.4
24.6154,6719.15
24.7854,5951.29
24.9554,5488.28
25.1254,5276.81
25.2954,5157.69
25.4654,5094.25
25.6354,5089.24
25.8054,4960.91
25.9754,4817.48
26.1454,5037.62
26.3154,5039.32
26.4854,5070.38
26.6554,4930.89
26.8254,4886.35
26.9954,4962.03
27.1654,4835.27
27.3354,4686.92
27.5054,4577.89
27.6754,4646
27.8454,4466.3
28.0154,4274.04
28.1854,4400.89
28.3554,4380.93
28.5254,4305.51
28.6954,4268.59
28.8654,4293.98
29.0354,4204.88
29.2054,4232.56
29.3754,4117.56
29.5454,4098.57
29.7154,4013.9
29.8854,3960.01
30.0554,3911.57
30.2254,3944.39
30.3954,3929.58
30.5654,3910.38
30.7354,3864.7
30.9054,3824.75
31.0754,3828.21
31.2454,3746.93
31.4154,3678.22
31.5854,3739.51
31.7554,3613.69
31.9254,3691.3
32.0954,3711.91
32.2654,3705.66
32.4354,3829.08
32.6054,3927.12
32.7754,3946.22
32.9454,3878.35
33.1154,3789.34
33.2854,3738.46
33.4554,3800.67
33.6254,3865.46
33.7954,3796.88
33.9654,3909.87
34.1354,3748.97
34.3054,3653.67
34.4754,3618.65
34.6454,3581.69
34.8154,3570.54
34.9854,3496.97
35.1554,3509.66
35.3254,3381.4
35.4954,3427.25
35.6654,3361.29
35.8354,3344.21
36.0054,3237.05
36.1754,3191.28
36.3454,3212
36.5154,3233.03
36.6854,3080.15
36.8554,3144.33
37.0254,3223.06
37.1954,3176.11
37.3654,3193.15
37.5354,3096.22
37.7054,3144.5
37.8754,3179.48
38.0454,3131.65
38.2154,3087.97
38.3854,3097.54
38.5554,3094.7
38.7254,3149.12
38.8954,3156.61
39.0654,3075.37
39.2354,3185.61
39.4054,3164.84
39.5754,3259.24
39.7454,3368.59
39.9154,3393.45
40.0854,3368.67
40.2554,3308.96
40.4254,3333.28
40.5954,3344.68
40.7654,3326.62
40.9354,3353.46
41.1054,3393.36
41.2754,3464.47
41.4454,3421.09
41.6154,3245.82
41.7854,3145.71
41.9554,3136.76
42.1254,3095.43
42.2954,3076.72
42.4654,3031.83
42.6354,3050.48
42.8054,3028.77
42.9754,3033.45
43.1454,2957.27
43.3154,3185.57
43.4854,3492.05
43.6554,3684.25
43.8254,3216.3
43.9954,3071.73
44.1654,2943.81
44.3354,3077.72
44.5054,3027.26
44.6754,3044.58
44.8454,2977.79
45.0154,2921.38
45.1854,2884.88
45.3554,2819.27
45.5254,2757.4
45.6954,2792.99
45.8654,2873.11
46.0354,2792.77
46.2054,2836.66
46.3754,2802.8
46.5454,2736.93
46.7154,2800.39
46.8854,2804.55
47.0554,2871.93
47.2254,2794.9
47.3954,2803.19
47.5654,2801.47
47.7354,2777.39
47.9054,2826.32
48.0754,2849.53
48.2454,2877.13
48.4154,2857.58
48.5854,3028.08
48.7554,3031.23
48.9254,3190.41
49.0954,3253.21
49.2654,3269.27
49.4354,3129.5
49.6054,3176.8
49.7754,3094.94
49.9454,3069.05
50.1154,3022.58
50.2854,3055.34
50.4554,2998.82
50.6254,2872.86
50.7954,2856.52
50.9654,2795.65
51.1354,2734.74
51.3054,2675.55
51.4754,2629.2
51.6454,2731.54
51.8154,2638.09
51.9854,2679
52.1554,2605.95
52.3254,2803.13
52.4954,2676.23
52.6654,2688.98
52.8354,2774.41
53.0054,2806.12
53.1754,2848.87
53.3454,3009.81
53.5154,2839.9
53.6854,2872.37
53.8554,2909.8
54.0254,2985.12
54.1954,2930.78
54.3654,2984.38
54.5354,3023.99
54.7054,3148.92
54.8754,3107.46
55.0454,3205.64
55.2154,3058.32
55.3854,3161.34
55.5554,3089.26
55.7254,3009.22
55.8954,3016.02
56.0654,2962.38
56.2354,2841.01
56.4054,2866.7
56.5754,2857.51
56.7454,2844.44
56.9154,2841.7
57.0854,2846.28
57.2554,2843.8
57.4254,2790.25
57.5954,2772.54
57.7654,2758.39
57.9354,2681.28
58.1054,2720.43
58.2754,2644.94
58.4454,2679.64
58.6154,2686.85
58.7854,2648.82
58.9554,2599.8
59.1254,2589.85
59.2954,2579.21
59.4654,2529.48
59.6354,2512.1
59.8054,2657.7
59.9754,2570.34
60.1454,2569.81
60.3154,2635.27
60.4854,2679.38
60.6554,2606.38
60.8254,2538.26
60.9954,2621.92
61.1654,2614.54
61.3354,2575.21
61.5054,2615.96
61.6754,2598.34
61.8454,2651.08
62.0154,2603.47
62.1854,2736.11
62.3554,2724.76
62.5254,2707.88
62.6954,2783.42
62.8654,2744.81
63.0354,2754.38
63.2054,2681.1
63.3754,2603.96
63.5454,2678.24
63.7154,2695.73
63.8854,2678.63
64.0554,2624.98
64.2254,2636.45
64.3954,2543.37
64.5654,2518.67
64.7354,2554.29
64.9054,2538.61
65.0754,2478.29
65.2454,2533.1
65.4154,2479
65.5854,2432.21
65.7554,2510.6
65.9254,2435.68
66.0954,2496.63
66.2654,2490.5
66.4354,2470.67
66.6054,2449.56
66.7754,2451.9
66.9454,2476.19
67.1154,2434.68
67.2854,2486.1
67.4554,2442.43
67.6254,2487.79
67.7954,2432.71
67.9654,2462.62
68.1354,2439.75
68.3054,2396.83
68.4754,2486.18
68.6454,2495.12
68.8154,2438.43
68.9854,2480.43
69.1554,2523.14
69.3254,2505.29
69.4954,2545.31
69.6654,2417.55
69.8354,2492.04
69.9884,2485.14