File: herald_visualization/Delia_Scripts/MnF3/MnF3_1to1_KS6Lgraphite/20mins/Differences_240925-MnF3_1to1_KS6Lgraphite-20min_milled-20-70deg_40min.csv
2Theta,Intensity
20.0254,186.834
20.1954,130.383
20.3654,180.863
20.5354,124.28
20.7054,124.463
20.8754,135.89
21.0454,-36.7669
21.2154,36.643
21.3854,-35.6507
21.5554,7.40006
21.7254,-71.0468
21.8954,-87.1421
22.0654,-5.60686
22.2354,-56.3523
22.4054,-241.05
22.5754,-249.698
22.7454,-261.475
22.9154,-201.844
23.0854,-105.525
23.2554,-184.904
23.4254,-113.996
23.5954,-17.4134
23.7654,85.0114
23.9354,289.356
24.1054,-345.146
24.2754,-745.963
24.4454,-261.829
24.6154,-72.0615
24.7854,-86.5792
24.9554,-181.929
25.1254,-201.24
25.2954,-195.059
25.4654,-170.141
25.6354,-101.671
25.8054,-167.929
25.9754,-263.529
26.1454,-9.99398
26.3154,8.31743
26.4854,41.1402
26.6554,-100.179
26.8254,-123.121
26.9954,18.1334
27.1654,-12.9694
27.3354,-62.89
27.5054,-85.1843
27.6754,54.2584
27.8454,-65.4492
28.0154,-207.292
28.1854,-36.5623
28.3554,-17.5357
28.5254,-59.1867
28.6954,-67.6663
28.8654,-15.6498
29.0354,-73.1288
29.2054,-0.701698
29.3754,-59.5316
29.5454,-19.4801
29.7154,-48.0738
29.8854,-50.5149
30.0554,-54.4723
30.2254,8.42095
30.3954,26.6977
30.5654,34.8769
30.7354,18.1979
30.9054,4.50636
31.0754,33.7505
31.2454,-22.3074
31.4154,-66.5296
31.5854,18.2419
31.7554,-93.9487
31.9254,-6.5595
32.0954,16.13
32.2654,-9.28493
32.4354,50.2437
32.6054,28.8632
32.7754,-64.9736
32.9454,-102.205
33.1154,-53.2291
33.2854,-9.11092
33.4554,36.8065
33.6254,-23.39
33.7954,-229.692
33.9654,-77.9929
34.1354,-50.3579
34.3054,13.7204
34.4754,40.534
34.6454,-24.7046
34.8154,-104.007
34.9854,-182.754
35.1554,-81.1056
35.3254,-117.101
35.4954,-14.9076
35.6654,-36.4053
35.8354,-5.4268
36.0054,-69.0926
36.1754,-79.0078
36.3454,-28.6724
36.5154,11.4522
36.6854,-126.319
36.8554,-50.7425
37.0254,36.1977
37.1954,-4.3205
37.3654,20.5107
37.5354,-63.9016
37.7054,1.7232
37.8754,55.4785
38.0454,23.6248
38.2154,-7.23091
38.3854,12.4319
38.5554,14.1277
38.7254,68.4229
38.8954,73.6679
39.0654,-10.353
39.2354,93.7061
39.4054,45.4172
39.5754,65.7409
39.7454,44.4392
39.9154,-55.0637
40.0854,-63.4359
40.2554,1.67364
40.4254,113.369
40.5954,105.945
40.7654,-39.3836
40.9354,-162.302
41.1054,-116.951
41.2754,119.102
41.4454,237.816
41.6154,154.643
41.7854,86.1049
41.9554,73.745
42.1254,29.2021
42.2954,38.6539
42.4654,36.0595
42.6354,86.6159
42.8054,81.75
42.9754,89.3333
43.1454,2.75783
43.3154,208.527
43.4854,498.751
43.6554,708.714
43.8254,277.913
43.9954,163.915
44.1654,54.3077
44.3354,198.597
44.5054,155.073
44.6754,178.138
44.8454,116.563
45.0154,64.3429
45.1854,29.7077
45.3554,-37.5604
45.5254,-105.123
45.6954,-77.9094
45.8654,-4.58794
46.0354,-85.1213
46.2054,-35.291
46.3754,-61.7461
46.5454,-125.28
46.7154,-61.2875
46.8854,-52.2584
47.0554,27.9462
47.2254,-32.2166
47.3954,-7.24122
47.5654,3.54637
47.7354,-12.54
47.9054,40.3749
48.0754,63.9428
48.2454,87.4405
48.4154,54.6281
48.5854,187.922
48.7554,103.369
48.9254,107.943
49.0954,4.67274
49.2654,-19.8189
49.4354,-91.6195
49.6054,20.4368
49.7754,20.4113
49.9454,100.865
50.1154,139.555
50.2854,227.381
50.4554,208.284
50.6254,109.913
50.7954,113.495
50.9654,65.6891
51.1354,12.7212
51.3054,-41.0664
51.4754,-82.0215
51.6454,26.3783
51.8154,-61.7199
51.9854,-17.5292
52.1554,-89.5801
52.3254,105.429
52.4954,-22.7936
52.6654,-12.2078
52.8354,63.6395
53.0054,64.8346
53.1754,37.4865
53.3454,88.1095
53.5154,-167.86
53.6854,-106.371
53.8554,27.9197
54.0254,173.477
54.1954,129.588
54.3654,129.531
54.5354,49.0182
54.7054,14.5276
54.8754,-131.748
55.0454,-38.0484
55.2154,-109.15
55.3854,127.545
55.5554,179.121
55.7254,167.316
55.8954,182.032
56.0654,94.516
56.2354,-68.9407
56.4054,-60.6726
56.5754,-56.6082
56.7454,-20.3708
56.9154,31.1428
57.0854,56.8127
57.2554,59.9706
57.4254,39.1482
57.5954,72.4042
57.7654,97.7339
57.9354,38.9976
58.1054,77.0483
58.2754,-15.9437
58.4454,-3.74068
58.6154,2.50081
58.7854,-10.6753
58.9554,-33.6618
59.1254,-31.8901
59.2954,-42.6702
59.4654,-91.6412
59.6354,-100.529
59.8054,54.3024
59.9754,-29.7673
60.1454,-36.5964
60.3154,12.1812
60.4854,33.3944
60.6554,-48.9152
60.8254,-99.1123
60.9954,12.5424
61.1654,25.8225
61.3354,-3.89564
61.5054,36.5933
61.6754,5.76925
61.8454,25.9573
62.0154,-73.2956
62.1854,12.8229
62.3554,-18.4437
62.5254,-42.4846
62.6954,39.3668
62.8654,30.1777
63.0354,65.2973
63.2054,-19.1973
63.3754,-123.372
63.5454,-29.013
63.7154,54.2964
63.8854,101.059
64.0554,87.0191
64.2254,118.605
64.3954,35.5483
64.5654,16.3366
64.7354,55.4413
64.9054,43.387
65.0754,-12.2253
65.2454,47.3863
65.4154,-2.77958
65.5854,-47.2555
65.7554,30.4061
65.9254,-49.398
66.0954,4.99158
66.2654,-2.10045
66.4354,-15.3199
66.6054,-27.5124
66.7754,-17.1084
66.9454,15.0152
67.1154,-20.0805
67.2854,36.7507
67.4554,-2.98706
67.6254,45.2253
67.7954,-7.92184
67.9654,22.5869
68.1354,-11.8512
68.3054,-69.863
68.4754,-0.0965291
68.6454,-7.71065
68.8154,-72.4701
68.9854,-25.097
69.1554,28.5017
69.3254,18.3427
69.4954,61.1666
69.6654,-66.8629
69.8354,6.13285
69.9884,-2.3778