File: herald_visualization/XRD_Plotting/Figures/CoF3/20250212_20-70deg_40min_CoF3_as_received.csv
2Theta,Intensity
20.0084,13995.0
20.1755,13747.0
20.3426,13849.0
20.5097,13777.0
20.6768,13910.0
20.8439,14033.0
21.011,13669.0
21.1781,13717.0
21.3453,13642.0
21.5124,13683.0
21.6795,13685.0
21.8466,13389.0
22.0137,13610.0
22.1808,13579.0
22.3479,13469.0
22.515,13439.0
22.6822,13365.0
22.8493,13397.0
23.0164,13384.0
23.1835,13328.0
23.3506,13232.0
23.5177,13470.0
23.6848,13456.0
23.8519,13561.0
24.0191,13834.0
24.1862,15604.0
24.3533,24253.0
24.5204,23947.0
24.6875,14896.0
24.8546,13622.0
25.0217,13422.0
25.1888,13379.0
25.356,13389.0
25.5231,13664.0
25.6902,13862.0
25.8573,13517.0
26.0244,13253.0
26.1915,13719.0
26.3586,13580.0
26.5258,13824.0
26.6929,13993.0
26.86,13618.0
27.0271,13457.0
27.1942,13409.0
27.3613,13495.0
27.5284,13705.0
27.6955,13449.0
27.8627,13547.0
28.0298,13363.0
28.1969,13300.0
28.364,13310.0
28.5311,13469.0
28.6982,13291.0
28.8653,13276.0
29.0324,13247.0
29.1996,13348.0
29.3667,12841.0
29.5338,13220.0
29.7009,13363.0
29.868,13097.0
30.0351,13083.0
30.2022,13118.0
30.3693,12984.0
30.5365,13104.0
30.7036,13300.0
30.8707,13218.0
31.0378,13196.0
31.2049,12971.0
31.372,13002.0
31.5391,12880.0
31.7062,13078.0
31.8734,12895.0
32.0405,13128.0
32.2076,13150.0
32.3747,13041.0
32.5418,12810.0
32.7089,12872.0
32.876,13019.0
33.0431,13142.0
33.2103,12994.0
33.3774,13029.0
33.5445,13035.0
33.7116,13326.0
33.8787,14073.0
34.0458,15018.0
34.2129,13731.0
34.38,13115.0
34.5472,13141.0
34.7143,13040.0
34.8814,12822.0
35.0485,13082.0
35.2156,12884.0
35.3827,13009.0
35.5498,13484.0
35.7169,13758.0
35.8841,12965.0
36.0512,13123.0
36.2183,13050.0
36.3854,12985.0
36.5525,13065.0
36.7196,12765.0
36.8867,12747.0
37.0538,12937.0
37.221,12789.0
37.3881,12878.0
37.5552,12857.0
37.7223,12824.0
37.8894,12848.0
38.0565,13117.0
38.2236,12759.0
38.3908,12798.0
38.5579,12716.0
38.725,12747.0
38.8921,12879.0
39.0592,12735.0
39.2263,12963.0
39.3934,13015.0
39.5605,12918.0
39.7277,12813.0
39.8948,13032.0
40.0619,12871.0
40.229,12845.0
40.3961,12952.0
40.5632,12920.0
40.7303,12816.0
40.8974,13001.0
41.0646,13551.0
41.2317,14747.0
41.3988,14171.0
41.5659,13166.0
41.733,12758.0
41.9001,12985.0
42.0672,12921.0
42.2343,12878.0
42.4015,12750.0
42.5686,12853.0
42.7357,12813.0
42.9028,13046.0
43.0699,12846.0
43.237,13008.0
43.4041,12868.0
43.5712,13052.0
43.7384,13045.0
43.9055,12913.0
44.0726,12841.0
44.2397,12637.0
44.4068,12799.0
44.5739,12809.0
44.741,12660.0
44.9081,12966.0
45.0753,12817.0
45.2424,13046.0
45.4095,12917.0
45.5766,12691.0
45.7437,12929.0
45.9108,12822.0
46.0779,12831.0
46.245,12808.0
46.4122,12808.0
46.5793,12840.0
46.7464,12619.0
46.9135,12788.0
47.0806,12782.0
47.2477,12447.0
47.4148,12860.0
47.5819,12587.0
47.7491,12903.0
47.9162,12869.0
48.0833,12903.0
48.2504,12689.0
48.4175,12716.0
48.5846,12939.0
48.7517,12940.0
48.9189,12832.0
49.086,12650.0
49.2531,12861.0
49.4202,12940.0
49.5873,12893.0
49.7544,13077.0
49.9215,13885.0
50.0886,15200.0
50.2558,14124.0
50.4229,13276.0
50.59,12809.0
50.7571,12736.0
50.9242,12973.0
51.0913,12642.0
51.2584,12810.0
51.4255,12880.0
51.5927,12795.0
51.7598,12742.0
51.9269,12798.0
52.094,12927.0
52.2611,12921.0
52.4282,12897.0
52.5953,12989.0
52.7624,12776.0
52.9296,12688.0
53.0967,12855.0
53.2638,12866.0
53.4309,12880.0
53.598,12807.0
53.7651,12616.0
53.9322,12993.0
54.0993,12919.0
54.2665,12789.0
54.4336,12758.0
54.6007,13072.0
54.7678,12945.0
54.9349,12971.0
55.102,13598.0
55.2691,14783.0
55.4362,15351.0
55.6034,14294.0
55.7705,13494.0
55.9376,13199.0
56.1047,13108.0
56.2718,13280.0
56.4389,13039.0
56.606,13229.0
56.7731,12985.0
56.9403,13081.0
57.1074,13204.0
57.2745,13238.0
57.4416,13519.0
57.6087,14019.0
57.7758,13700.0
57.9429,13144.0
58.11,12993.0
58.2772,12918.0
58.4443,12905.0
58.6114,12798.0
58.7785,13003.0
58.9456,12938.0
59.1127,13063.0
59.2798,12915.0
59.447,12793.0
59.6141,12990.0
59.7812,13228.0
59.9483,12934.0
60.1154,13225.0
60.2825,12759.0
60.4496,12914.0
60.6167,13055.0
60.7839,12999.0
60.951,12676.0
61.1181,12952.0
61.2852,13064.0
61.4523,13068.0
61.6194,12873.0
61.7865,12933.0
61.9536,13020.0
62.1208,13056.0
62.2879,13034.0
62.455,13271.0
62.6221,13157.0
62.7892,13135.0
62.9563,13512.0
63.1234,13421.0
63.2905,13175.0
63.4577,13147.0
63.6248,13142.0
63.7919,13173.0
63.959,13306.0
64.1261,13372.0
64.2932,13333.0
64.4603,13064.0
64.6274,13264.0
64.7946,13070.0
64.9617,12914.0
65.1288,13013.0
65.2959,13099.0
65.463,12855.0
65.6301,12932.0
65.7972,12996.0
65.9643,12983.0
66.1315,13068.0
66.2986,13052.0
66.4657,12843.0
66.6328,13186.0
66.7999,13010.0
66.967,13144.0
67.1341,13143.0
67.3012,12957.0
67.4684,12810.0
67.6355,13183.0
67.8026,12925.0
67.9697,12955.0
68.1368,13104.0
68.3039,13023.0
68.471,12845.0
68.6381,12915.0
68.8053,12931.0
68.9724,13019.0
69.1395,13027.0
69.3066,12986.0
69.4737,12800.0
69.6408,12955.0
69.8079,13002.0
69.975,13125.0
69.9918,12970.0