File: herald_visualization/XRD_Plotting/Figures/LiFeF2/250207-FeF2(LiF)-ball_milled_24h-20-70deg-40min.csv
2Theta,Intensity
20.0084,8814.0
20.1755,8647.0
20.3426,8488.0
20.5097,8471.0
20.6768,8158.0
20.8439,8119.0
21.011,8110.0
21.1781,7983.0
21.3453,7925.0
21.5124,7904.0
21.6795,7871.0
21.8466,7789.0
22.0137,7776.0
22.1808,7687.0
22.3479,7574.0
22.515,7525.0
22.6822,7333.0
22.8493,7468.0
23.0164,7433.0
23.1835,7563.0
23.3506,8155.0
23.5177,10295.0
23.6848,20725.0
23.8519,12272.0
24.0191,8145.0
24.1862,7515.0
24.3533,7155.0
24.5204,7138.0
24.6875,6875.0
24.8546,7064.0
25.0217,6732.0
25.1888,6873.0
25.356,6681.0
25.5231,6831.0
25.6902,6602.0
25.8573,6823.0
26.0244,6877.0
26.1915,6561.0
26.3586,6854.0
26.5258,6902.0
26.6929,7536.0
26.86,6922.0
27.0271,7004.0
27.1942,7016.0
27.3613,7160.0
27.5284,6769.0
27.6955,6507.0
27.8627,6651.0
28.0298,6616.0
28.1969,6559.0
28.364,6628.0
28.5311,6548.0
28.6982,6571.0
28.8653,6284.0
29.0324,6417.0
29.1996,6450.0
29.3667,6452.0
29.5338,6291.0
29.7009,6436.0
29.868,6447.0
30.0351,6423.0
30.2022,6309.0
30.3693,6337.0
30.5365,6474.0
30.7036,6253.0
30.8707,6232.0
31.0378,6214.0
31.2049,6304.0
31.372,6256.0
31.5391,6331.0
31.7062,6477.0
31.8734,6316.0
32.0405,6225.0
32.2076,6334.0
32.3747,6202.0
32.5418,6288.0
32.7089,6367.0
32.876,6595.0
33.0431,6866.0
33.2103,7088.0
33.3774,7554.0
33.5445,6841.0
33.7116,6497.0
33.8787,6378.0
34.0458,6427.0
34.2129,6573.0
34.38,6619.0
34.5472,6485.0
34.7143,6148.0
34.8814,6222.0
35.0485,6254.0
35.2156,6322.0
35.3827,6085.0
35.5498,6046.0
35.7169,6148.0
35.8841,6161.0
36.0512,6098.0
36.2183,6026.0
36.3854,6181.0
36.5525,6010.0
36.7196,6034.0
36.8867,6195.0
37.0538,6132.0
37.221,6141.0
37.3881,6187.0
37.5552,6193.0
37.7223,6277.0
37.8894,6155.0
38.0565,6187.0
38.2236,6368.0
38.3908,6383.0
38.5579,7345.0
38.725,6893.0
38.8921,6272.0
39.0592,6059.0
39.2263,6211.0
39.3934,6307.0
39.5605,6227.0
39.7277,6412.0
39.8948,6842.0
40.0619,7415.0
40.229,6768.0
40.3961,6291.0
40.5632,6318.0
40.7303,6155.0
40.8974,6315.0
41.0646,6067.0
41.2317,6087.0
41.3988,6164.0
41.5659,6044.0
41.733,6002.0
41.9001,5915.0
42.0672,6266.0
42.2343,6171.0
42.4015,6150.0
42.5686,6057.0
42.7357,6247.0
42.9028,6158.0
43.0699,6155.0
43.237,6176.0
43.4041,6082.0
43.5712,6144.0
43.7384,6132.0
43.9055,6024.0
44.0726,6109.0
44.2397,6194.0
44.4068,6254.0
44.5739,6316.0
44.741,6846.0
44.9081,7859.0
45.0753,6877.0
45.2424,6449.0
45.4095,6175.0
45.5766,6247.0
45.7437,6086.0
45.9108,6198.0
46.0779,6060.0
46.245,6122.0
46.4122,6222.0
46.5793,6093.0
46.7464,6185.0
46.9135,6119.0
47.0806,6156.0
47.2477,6144.0
47.4148,6139.0
47.5819,6284.0
47.7491,6188.0
47.9162,6294.0
48.0833,6449.0
48.2504,6615.0
48.4175,7054.0
48.5846,8381.0
48.7517,8078.0
48.9189,6807.0
49.086,6544.0
49.2531,6415.0
49.4202,6223.0
49.5873,6163.0
49.7544,6214.0
49.9215,6131.0
50.0886,6115.0
50.2558,6345.0
50.4229,6171.0
50.59,6234.0
50.7571,6149.0
50.9242,6273.0
51.0913,6221.0
51.2584,6554.0
51.4255,6645.0
51.5927,6437.0
51.7598,6244.0
51.9269,6304.0
52.094,6103.0
52.2611,6302.0
52.4282,6312.0
52.5953,6369.0
52.7624,6332.0
52.9296,6376.0
53.0967,6097.0
53.2638,6049.0
53.4309,6391.0
53.598,6470.0
53.7651,6457.0
53.9322,7088.0
54.0993,8122.0
54.2665,7940.0
54.4336,7063.0
54.6007,6720.0
54.7678,6552.0
54.9349,6599.0
55.102,6692.0
55.2691,6784.0
55.4362,7224.0
55.6034,7159.0
55.7705,6814.0
55.9376,6525.0
56.1047,6404.0
56.2718,6437.0
56.4389,6392.0
56.606,6357.0
56.7731,6281.0
56.9403,6326.0
57.1074,6109.0
57.2745,6258.0
57.4416,6199.0
57.6087,6181.0
57.7758,6280.0
57.9429,6302.0
58.11,6162.0
58.2772,6221.0
58.4443,6130.0
58.6114,6332.0
58.7785,6261.0
58.9456,6327.0
59.1127,6365.0
59.2798,6427.0
59.447,6361.0
59.6141,6210.0
59.7812,6226.0
59.9483,6251.0
60.1154,6365.0
60.2825,6088.0
60.4496,6284.0
60.6167,6457.0
60.7839,6446.0
60.951,6698.0
61.1181,6631.0
61.2852,6468.0
61.4523,6430.0
61.6194,6738.0
61.7865,6538.0
61.9536,6420.0
62.1208,6266.0
62.2879,6358.0
62.455,6345.0
62.6221,6315.0
62.7892,6363.0
62.9563,6351.0
63.1234,6268.0
63.2905,6270.0
63.4577,6176.0
63.6248,6060.0
63.7919,6254.0
63.959,6217.0
64.1261,6420.0
64.2932,6249.0
64.4603,6386.0
64.6274,6226.0
64.7946,6380.0
64.9617,6234.0
65.1288,6160.0
65.2959,6572.0
65.463,6641.0
65.6301,6563.0
65.7972,6371.0
65.9643,6373.0
66.1315,6392.0
66.2986,6203.0
66.4657,6078.0
66.6328,6145.0
66.7999,6199.0
66.967,6195.0
67.1341,6127.0
67.3012,6049.0
67.4684,6210.0
67.6355,6203.0
67.8026,6124.0
67.9697,6223.0
68.1368,6166.0
68.3039,6202.0
68.471,6237.0
68.6381,6122.0
68.8053,6224.0
68.9724,6250.0
69.1395,6262.0
69.3066,6336.0
69.4737,6092.0
69.6408,6418.0
69.8079,6368.0
69.975,6565.0
69.9918,6370.0