File: herald_visualization/XRD_Plotting/Figures/LiFeF2/LiFeF3_777522.csv
2Theta (degrees),Intensity
12.005,33.06
21.4062,100.0
24.1444,5.36628
28.8963,8.46899
30.071,39.3671
33.7206,18.0002
34.067,40.9258
35.7525,0.65429
36.5666,1.12291
37.8446,6.45583
38.3125,38.993
40.8826,8.20617
41.9034,4.79216
43.6088,4.5813
45.8005,18.9696
46.6035,4.30928
49.453,2.45189
49.9615,40.1827
52.0689,25.6691
52.1897,2.52031
52.9179,3.2505
55.5327,18.1124
56.2328,4.6621
56.3504,2.42757
58.4089,12.5155
59.8688,0.952114
60.7579,5.77695
62.5084,1.05898
62.9435,8.30321
63.0485,0.533766
63.1614,12.9832
64.0183,13.8839
64.1274,0.609193
64.8748,1.20476
65.9372,4.17098
66.0385,4.0636
66.985,1.33106
67.0917,6.79305
67.7191,0.704072
70.4031,0.402509
70.9121,0.572799
71.3216,2.89688
71.7279,1.55775
73.7455,1.74611
74.6459,0.502226
75.5442,0.606994
75.6456,1.389
75.7477,3.70661
76.9351,2.99273
77.037,0.618474
77.3274,0.738712
77.7217,1.36243
79.1037,2.59355
79.9839,0.997449
80.0804,2.75905
80.471,1.24338
80.868,0.486335
82.0351,10.7593
82.7146,1.67642
83.0105,1.46283
85.5284,1.48231
85.5294,2.81336
87.1709,0.784784
88.2277,1.94007
88.3256,2.02673
88.6128,1.33476
89.194,0.235037
89.2922,3.58113