File: herald_visualization/XRD_Plotting/Figures/LiFeF2/LiFeF3_776080.csv
2Theta (degrees),Intensity
16.7441,1.79104
19.6153,23.337
20.3694,9.18709
20.5045,0.205397
22.1735,100.0
24.5114,0.182371
26.4827,0.865513
26.5883,0.0642082
28.4605,68.2023
32.0757,1.03132
32.7279,36.4525
33.8597,7.78163
35.2239,10.4934
35.4352,0.931527
35.7493,0.0124618
35.9908,0.517005
36.7761,0.0140264
37.4063,10.5009
38.4751,0.283193
38.4932,22.1635
39.7195,34.0505
39.8368,6.37387
39.9104,0.371183
39.9405,0.161906
41.3161,10.0019
41.4207,4.05837
41.7051,5.09772
42.61,2.86279
43.9331,0.0042565
44.2597,0.00500148
44.9703,0.00314066
45.2367,0.191988
45.7268,0.0536588
46.247,12.4485
46.393,1.26343
47.8053,3.58229
48.7191,0.0584522
48.8666,0.00178731
49.3693,0.00238489
50.06,0.0497824
50.2443,24.6907
51.2433,54.4478
51.336,20.0107
51.3998,1.82598
51.7999,0.75638
52.6449,2.00126
52.931,2.13518
54.53,2.81869
54.7614,1.44382
55.0392,0.0128165
55.2018,0.0517273
55.4742,1.47454
55.8436,0.0627241
56.0145,2.10422
56.2288,1.71188
56.2855,0.284253
56.2985,0.126913
56.5744,9.58227
56.7438,0.671775
56.8668,0.0269663
57.0254,2.38171
57.8218,0.194618
58.0969,0.712143
58.1228,0.0405339
58.7312,0.221029
58.8966,0.343179
59.1717,0.0849773
59.459,0.0136743
60.0781,1.16082
60.174,6.01306
61.211,0.0782534
61.4639,20.4818
62.2214,6.26438
62.253,0.00453726
62.3813,0.0207862
62.6472,11.1472
64.0738,9.96408
64.0774,7.99184
64.533,0.0689287
64.545,0.312016
64.6897,0.777627
65.2157,0.0444313
65.3384,7.56149
65.6336,5.64576
65.6765,1.88239
65.9404,0.0381684
66.2078,0.0191915
66.3653,1.62882
66.7456,0.137248
66.9299,0.00680342
67.0836,1.77004
67.207,3.52554
67.3394,0.176068
67.735,0.0025612
67.9208,1.19029
68.2622,0.934001
68.3903,0.902506
68.5931,0.136832
69.6905,0.0286674
70.2223,0.0305597
70.4636,0.0335059
71.1623,0.0218167
71.2392,0.280963
71.3032,0.0366676
71.9545,2.23944
72.1826,0.313095
72.7549,1.6265
72.8968,0.0267912
72.903,0.0257752
73.0106,0.0283095
73.1496,0.467736
73.3321,0.449977
73.8607,0.00332837
74.0921,0.289124
74.1038,0.999964
74.4775,1.46287
74.9177,0.0368219
74.9842,0.203098
75.033,0.227533
75.6,0.55711
75.7399,0.294378
75.9378,2.30721
76.3233,4.42061
76.3657,0.042415
76.8451,0.234273
76.8682,0.00660386
76.9986,1.86519
77.2971,2.9956
77.7978,0.0703831
77.8653,0.54334
78.2334,0.0484203
78.8111,0.204366
78.9547,0.76263
79.1109,0.0857954
79.2653,0.0336138
79.4692,0.176874
79.5766,0.58802
79.6382,0.0579172
79.6492,0.0682539
79.7227,1.18179
79.7821,0.137123
79.8828,1.33412
79.9847,0.175891
80.0216,0.10096
80.2659,1.27501
80.5138,0.00427028
80.6008,0.179847
81.1822,0.28119
81.3194,0.00788299
81.4294,0.00804375
81.7286,0.0140223
82.1097,0.0762981
82.443,0.11452
82.4883,4.22972
82.7397,0.0909898
82.7954,0.150587
82.8483,0.0934809
83.3909,1.03395
84.7867,1.74926
85.1155,0.00350046
85.1655,5.09321
85.4968,0.155632
85.5995,7.60861
85.9005,0.170664
86.0896,0.990904
86.167,1.4843
86.3083,0.106196
86.8114,0.407183
86.8254,1.68048
86.9419,2.72813
87.0643,0.0349514
87.2366,0.0769717
87.5891,3.29182
87.7307,0.00145386
87.897,0.931997
87.9667,3.12338
88.1378,0.00360189
88.2139,2.72831
88.6381,0.00458601
89.0451,0.0355628
89.4225,0.0350443
89.5473,0.00894615
89.7527,1.06999
89.9601,1.83317
89.98,0.0106702