File: herald_visualization/XRD_Plotting/Figures/LiFeF2/LiFeF3_761166.csv
2Theta (degrees),Intensity
20.4809,0.00333223
22.9887,50.9635
23.3329,100.0
31.8762,49.1835
32.1883,20.3062
34.0643,12.7333
34.2516,8.61624
37.4879,0.0604216
38.0321,2.76431
38.9265,18.2962
39.3317,20.0767
39.403,17.1805
40.2618,0.06254
41.6554,19.0401
41.7461,8.64708
46.9743,10.0884
47.7106,19.4839
49.048,0.0221006
51.3146,0.00256455
51.5869,24.1478
52.1033,20.3837
52.3509,22.5138
53.5677,0.413612
53.624,0.561832
53.8475,0.376066
54.5661,7.40369
55.063,7.80818
55.1544,7.16231
55.2364,4.68808
55.7658,8.49488
59.4094,8.52707
59.8451,7.75527
59.9846,9.11877
60.8521,11.7755
61.2128,23.5069
61.5439,0.0422488
62.5949,0.239426
63.4724,0.186984
63.5566,0.28778
64.4626,0.054232
64.7957,0.0514104
66.6239,3.81838
67.3433,2.13603
68.9897,2.1034
69.1762,5.30961
69.5848,2.34085
69.6745,3.21594
69.9537,1.86294
71.4724,0.108774
71.7213,2.26521
72.0267,0.100139
72.1639,0.691251
72.4694,0.225994
73.4271,0.325344
74.0693,0.648935
74.585,1.48192
74.679,0.399429
74.6942,0.747565
75.2084,1.36275
75.2485,0.0791653
75.3324,1.15339
75.7455,0.0340459
75.9469,0.084922
76.4304,2.81038
76.5314,3.10854
76.6555,3.04058
76.8867,2.78407
76.9674,0.0163055
77.5419,2.96612
77.7732,2.54128
78.8206,1.45085
79.9838,2.51764
80.0795,2.49641
81.1771,2.03461
81.2225,2.69664
81.3347,2.83289
83.4871,0.0236974
83.5804,4.12985
83.9863,0.06686
84.2139,0.0561755
84.6085,4.91703
84.7903,3.85223
85.7796,0.00154422
86.0324,1.36191
86.427,0.00606622
86.9965,2.40584
88.8279,2.21625
89.3306,0.0132784
89.5048,2.52398