File: herald_visualization/XRD_Plotting/Figures/Li(FeMn)F3/250207-MnF2(LiF)-ball_milled_24h-20-70deg-40min.csv
2Theta,Intensity
20.0084,4619.0
20.1755,4522.0
20.3426,4526.0
20.5097,4504.0
20.6768,4399.0
20.8439,4299.0
21.011,4310.0
21.1781,4167.0
21.3453,4165.0
21.5124,4056.0
21.6795,4063.0
21.8466,3961.0
22.0137,3909.0
22.1808,3788.0
22.3479,3761.0
22.515,3713.0
22.6822,3717.0
22.8493,3620.0
23.0164,3564.0
23.1835,3572.0
23.3506,3556.0
23.5177,3676.0
23.6848,3522.0
23.8519,3495.0
24.0191,3430.0
24.1862,3473.0
24.3533,3404.0
24.5204,3386.0
24.6875,3396.0
24.8546,3505.0
25.0217,3516.0
25.1888,3697.0
25.356,3871.0
25.5231,5392.0
25.6902,7872.0
25.8573,5107.0
26.0244,3847.0
26.1915,3530.0
26.3586,3409.0
26.5258,3389.0
26.6929,3371.0
26.86,3395.0
27.0271,3337.0
27.1942,3328.0
27.3613,3277.0
27.5284,3270.0
27.6955,3174.0
27.8627,3151.0
28.0298,3120.0
28.1969,3247.0
28.364,3105.0
28.5311,3185.0
28.6982,3197.0
28.8653,3201.0
29.0324,3109.0
29.1996,3070.0
29.3667,3051.0
29.5338,3071.0
29.7009,3035.0
29.868,2994.0
30.0351,2974.0
30.2022,3033.0
30.3693,2945.0
30.5365,2991.0
30.7036,2948.0
30.8707,2957.0
31.0378,2803.0
31.2049,2935.0
31.372,2869.0
31.5391,2858.0
31.7062,2962.0
31.8734,3052.0
32.0405,3190.0
32.2076,3235.0
32.3747,4118.0
32.5418,5282.0
32.7089,4078.0
32.876,3182.0
33.0431,3115.0
33.2103,3042.0
33.3774,2869.0
33.5445,2910.0
33.7116,2746.0
33.8787,2760.0
34.0458,2671.0
34.2129,2781.0
34.38,2674.0
34.5472,2694.0
34.7143,2742.0
34.8814,2756.0
35.0485,2712.0
35.2156,2658.0
35.3827,2678.0
35.5498,2676.0
35.7169,2745.0
35.8841,2702.0
36.0512,2769.0
36.2183,2778.0
36.3854,2818.0
36.5525,2803.0
36.7196,3058.0
36.8867,2807.0
37.0538,2857.0
37.221,2956.0
37.3881,3611.0
37.5552,4055.0
37.7223,3221.0
37.8894,2942.0
38.0565,2917.0
38.2236,2794.0
38.3908,3032.0
38.5579,4645.0
38.725,3090.0
38.8921,2800.0
39.0592,2660.0
39.2263,2719.0
39.3934,2594.0
39.5605,2630.0
39.7277,2664.0
39.8948,2760.0
40.0619,2758.0
40.229,2580.0
40.3961,2664.0
40.5632,2684.0
40.7303,2775.0
40.8974,2750.0
41.0646,2763.0
41.2317,2965.0
41.3988,2815.0
41.5659,2693.0
41.733,2628.0
41.9001,2584.0
42.0672,2519.0
42.2343,2608.0
42.4015,2600.0
42.5686,2558.0
42.7357,2567.0
42.9028,2540.0
43.0699,2618.0
43.237,2624.0
43.4041,2706.0
43.5712,2712.0
43.7384,2594.0
43.9055,2663.0
44.0726,2616.0
44.2397,2587.0
44.4068,2734.0
44.5739,2818.0
44.741,3796.0
44.9081,5701.0
45.0753,3072.0
45.2424,2642.0
45.4095,2649.0
45.5766,2594.0
45.7437,2531.0
45.9108,2551.0
46.0779,2553.0
46.245,2579.0
46.4122,2512.0
46.5793,2631.0
46.7464,2501.0
46.9135,2561.0
47.0806,2588.0
47.2477,2603.0
47.4148,2494.0
47.5819,2602.0
47.7491,2567.0
47.9162,2649.0
48.0833,2575.0
48.2504,2569.0
48.4175,2702.0
48.5846,2668.0
48.7517,2721.0
48.9189,2720.0
49.086,2743.0
49.2531,2858.0
49.4202,2987.0
49.5873,3338.0
49.7544,4416.0
49.9215,5930.0
50.0886,5123.0
50.2558,3808.0
50.4229,3158.0
50.59,3061.0
50.7571,2868.0
50.9242,2792.0
51.0913,2830.0
51.2584,2652.0
51.4255,2803.0
51.5927,2679.0
51.7598,2757.0
51.9269,2647.0
52.094,2738.0
52.2611,2738.0
52.4282,2765.0
52.5953,2766.0
52.7624,3136.0
52.9296,3589.0
53.0967,3541.0
53.2638,2852.0
53.4309,2711.0
53.598,2697.0
53.7651,2674.0
53.9322,2642.0
54.0993,2590.0
54.2665,2644.0
54.4336,2672.0
54.6007,2694.0
54.7678,2580.0
54.9349,2820.0
55.102,2775.0
55.2691,3051.0
55.4362,3183.0
55.6034,2828.0
55.7705,2713.0
55.9376,2663.0
56.1047,2549.0
56.2718,2605.0
56.4389,2632.0
56.606,2568.0
56.7731,2648.0
56.9403,2602.0
57.1074,2621.0
57.2745,2650.0
57.4416,2562.0
57.6087,2661.0
57.7758,2609.0
57.9429,2578.0
58.11,2563.0
58.2772,2534.0
58.4443,2629.0
58.6114,2652.0
58.7785,2598.0
58.9456,2562.0
59.1127,2679.0
59.2798,2732.0
59.447,2692.0
59.6141,2823.0
59.7812,2961.0
59.9483,2946.0
60.1154,2889.0
60.2825,2721.0
60.4496,2632.0
60.6167,2744.0
60.7839,2712.0
60.951,2728.0
61.1181,2741.0
61.2852,2762.0
61.4523,2814.0
61.6194,2835.0
61.7865,2864.0
61.9536,3201.0
62.1208,3201.0
62.2879,2991.0
62.455,2726.0
62.6221,2810.0
62.7892,2746.0
62.9563,2720.0
63.1234,2878.0
63.2905,2887.0
63.4577,3155.0
63.6248,3409.0
63.7919,3277.0
63.959,2990.0
64.1261,2786.0
64.2932,2706.0
64.4603,2657.0
64.6274,2687.0
64.7946,2703.0
64.9617,2628.0
65.1288,2709.0
65.2959,2983.0
65.463,3027.0
65.6301,2771.0
65.7972,2594.0
65.9643,2514.0
66.1315,2573.0
66.2986,2645.0
66.4657,2768.0
66.6328,2616.0
66.7999,2636.0
66.967,2603.0
67.1341,2743.0
67.3012,2616.0
67.4684,2671.0
67.6355,2679.0
67.8026,2580.0
67.9697,2665.0
68.1368,2722.0
68.3039,2658.0
68.471,2650.0
68.6381,2603.0
68.8053,2518.0
68.9724,2646.0
69.1395,2582.0
69.3066,2531.0
69.4737,2579.0
69.6408,2539.0
69.8079,2665.0
69.975,2675.0
69.9918,2542.0