File: herald_visualization/Delia_Scripts/VF4_1to1_KS6Lgraphite/VF4_1to1_KS6Lgraphite_raw/240827-VF4_1to1_KS6Lgraphite-0min_milled-20-70deg_40min.csv
2Theta,Intensity
20.0084,3779.0
20.1755,3741.0
20.3426,3608.0
20.5097,3593.0
20.6768,3504.0
20.8439,3343.0
21.011,3446.0
21.1781,3180.0
21.3453,3139.0
21.5124,3177.0
21.6795,2919.0
21.8466,2959.0
22.0137,2820.0
22.1808,2817.0
22.3479,2768.0
22.515,2718.0
22.6822,2690.0
22.8493,2648.0
23.0164,2599.0
23.1835,2659.0
23.3506,2690.0
23.5177,3010.0
23.6848,3651.0
23.8519,5033.0
24.0191,5444.0
24.1862,3896.0
24.3533,2881.0
24.5204,2517.0
24.6875,2287.0
24.8546,2163.0
25.0217,2130.0
25.1888,2085.0
25.356,2107.0
25.5231,2365.0
25.6902,4497.0
25.8573,7557.0
26.0244,2361.0
26.1915,1962.0
26.3586,2242.0
26.5258,2909.0
26.6929,2223.0
26.86,1881.0
27.0271,1747.0
27.1942,1739.0
27.3613,1747.0
27.5284,1653.0
27.6955,1615.0
27.8627,1551.0
28.0298,1661.0
28.1969,1550.0
28.364,1488.0
28.5311,1468.0
28.6982,1501.0
28.8653,1461.0
29.0324,1450.0
29.1996,1420.0
29.3667,1394.0
29.5338,1406.0
29.7009,1286.0
29.868,1352.0
30.0351,1385.0
30.2022,1309.0
30.3693,1263.0
30.5365,1271.0
30.7036,1261.0
30.8707,1199.0
31.0378,1203.0
31.2049,1227.0
31.372,1174.0
31.5391,1140.0
31.7062,1153.0
31.8734,1065.0
32.0405,1169.0
32.2076,1118.0
32.3747,1201.0
32.5418,1127.0
32.7089,1077.0
32.876,1031.0
33.0431,1156.0
33.2103,1229.0
33.3774,1392.0
33.5445,1780.0
33.7116,1417.0
33.8787,1127.0
34.0458,1093.0
34.2129,1046.0
34.38,1072.0
34.5472,1075.0
34.7143,1273.0
34.8814,1001.0
35.0485,966.0
35.2156,951.0
35.3827,856.0
35.5498,867.0
35.7169,839.0
35.8841,837.0
36.0512,790.0
36.2183,858.0
36.3854,862.0
36.5525,875.0
36.7196,837.0
36.8867,823.0
37.0538,799.0
37.221,791.0
37.3881,813.0
37.5552,858.0
37.7223,878.0
37.8894,831.0
38.0565,861.0
38.2236,766.0
38.3908,927.0
38.5579,1152.0
38.725,867.0
38.8921,735.0
39.0592,777.0
39.2263,712.0
39.3934,774.0
39.5605,797.0
39.7277,844.0
39.8948,1184.0
40.0619,1261.0
40.229,1085.0
40.3961,1294.0
40.5632,1154.0
40.7303,1010.0
40.8974,880.0
41.0646,774.0
41.2317,727.0
41.3988,730.0
41.5659,692.0
41.733,645.0
41.9001,681.0
42.0672,647.0
42.2343,730.0
42.4015,1039.0
42.5686,1134.0
42.7357,1015.0
42.9028,728.0
43.0699,660.0
43.237,613.0
43.4041,624.0
43.5712,665.0
43.7384,636.0
43.9055,650.0
44.0726,629.0
44.2397,597.0
44.4068,643.0
44.5739,570.0
44.741,567.0
44.9081,638.0
45.0753,588.0
45.2424,598.0
45.4095,599.0
45.5766,561.0
45.7437,511.0
45.9108,568.0
46.0779,524.0
46.245,546.0
46.4122,530.0
46.5793,501.0
46.7464,530.0
46.9135,528.0
47.0806,551.0
47.2477,476.0
47.4148,515.0
47.5819,544.0
47.7491,542.0
47.9162,554.0
48.0833,512.0
48.2504,598.0
48.4175,583.0
48.5846,636.0
48.7517,815.0
48.9189,1274.0
49.086,2013.0
49.2531,1158.0
49.4202,755.0
49.5873,613.0
49.7544,542.0
49.9215,469.0
50.0886,475.0
50.2558,477.0
50.4229,449.0
50.59,447.0
50.7571,423.0
50.9242,426.0
51.0913,450.0
51.2584,412.0
51.4255,397.0
51.5927,378.0
51.7598,447.0
51.9269,427.0
52.094,446.0
52.2611,401.0
52.4282,417.0
52.5953,452.0
52.7624,558.0
52.9296,790.0
53.0967,906.0
53.2638,635.0
53.4309,485.0
53.598,452.0
53.7651,526.0
53.9322,547.0
54.0993,719.0
54.2665,872.0
54.4336,935.0
54.6007,949.0
54.7678,950.0
54.9349,1007.0
55.102,903.0
55.2691,804.0
55.4362,1033.0
55.6034,920.0
55.7705,621.0
55.9376,566.0
56.1047,589.0
56.2718,693.0
56.4389,553.0
56.606,488.0
56.7731,523.0
56.9403,698.0
57.1074,597.0
57.2745,433.0
57.4416,355.0
57.6087,354.0
57.7758,323.0
57.9429,330.0
58.11,354.0
58.2772,318.0
58.4443,364.0
58.6114,364.0
58.7785,344.0
58.9456,378.0
59.1127,394.0
59.2798,475.0
59.447,421.0
59.6141,313.0
59.7812,357.0
59.9483,347.0
60.1154,352.0
60.2825,332.0
60.4496,351.0
60.6167,315.0
60.7839,292.0
60.951,312.0
61.1181,347.0
61.2852,365.0
61.4523,380.0
61.6194,443.0
61.7865,429.0
61.9536,427.0
62.1208,413.0
62.2879,462.0
62.455,498.0
62.6221,416.0
62.7892,403.0
62.9563,388.0
63.1234,355.0
63.2905,317.0
63.4577,353.0
63.6248,351.0
63.7919,384.0
63.959,485.0
64.1261,664.0
64.2932,551.0
64.4603,395.0
64.6274,274.0
64.7946,265.0
64.9617,310.0
65.1288,296.0
65.2959,258.0
65.463,295.0
65.6301,271.0
65.7972,263.0
65.9643,272.0
66.1315,278.0
66.2986,245.0
66.4657,229.0
66.6328,246.0
66.7999,258.0
66.967,241.0
67.1341,226.0
67.3012,247.0
67.4684,225.0
67.6355,270.0
67.8026,244.0
67.9697,283.0
68.1368,255.0
68.3039,249.0
68.471,254.0
68.6381,240.0
68.8053,257.0
68.9724,252.0
69.1395,234.0
69.3066,260.0
69.4737,312.0
69.6408,318.0
69.8079,334.0
69.975,349.0
69.9918,365.0