File: herald_visualization/Delia_Scripts/VF4_1to1_KS6Lgraphite/VF4_1to1_KS6Lgraphite_raw/240920-VF4_1to1_KS6Lgraphite-100min_milled-20-70deg_40min.csv
2Theta,Intensity
20.0084,3426.0
20.1755,3249.0
20.3426,3203.0
20.5097,3107.0
20.6768,3123.0
20.8439,3092.0
21.011,2919.0
21.1781,2872.0
21.3453,2871.0
21.5124,2745.0
21.6795,2775.0
21.8466,2611.0
22.0137,2624.0
22.1808,2537.0
22.3479,2518.0
22.515,2577.0
22.6822,2455.0
22.8493,2504.0
23.0164,2645.0
23.1835,2899.0
23.3506,3358.0
23.5177,4636.0
23.6848,6398.0
23.8519,7623.0
24.0191,6156.0
24.1862,4408.0
24.3533,3281.0
24.5204,2596.0
24.6875,2294.0
24.8546,2157.0
25.0217,1940.0
25.1888,1893.0
25.356,1910.0
25.5231,1767.0
25.6902,1774.0
25.8573,1757.0
26.0244,1708.0
26.1915,1742.0
26.3586,1668.0
26.5258,1587.0
26.6929,1640.0
26.86,1519.0
27.0271,1514.0
27.1942,1585.0
27.3613,1565.0
27.5284,1500.0
27.6955,1510.0
27.8627,1431.0
28.0298,1381.0
28.1969,1456.0
28.364,1355.0
28.5311,1440.0
28.6982,1371.0
28.8653,1371.0
29.0324,1297.0
29.1996,1318.0
29.3667,1255.0
29.5338,1263.0
29.7009,1249.0
29.868,1241.0
30.0351,1200.0
30.2022,1228.0
30.3693,1222.0
30.5365,1144.0
30.7036,1109.0
30.8707,1049.0
31.0378,1180.0
31.2049,1059.0
31.372,1113.0
31.5391,1098.0
31.7062,1069.0
31.8734,1024.0
32.0405,1082.0
32.2076,985.0
32.3747,1069.0
32.5418,1070.0
32.7089,1062.0
32.876,1161.0
33.0431,1262.0
33.2103,1441.0
33.3774,1520.0
33.5445,1427.0
33.7116,1290.0
33.8787,1119.0
34.0458,1175.0
34.2129,1007.0
34.38,1101.0
34.5472,1090.0
34.7143,962.0
34.8814,907.0
35.0485,934.0
35.2156,912.0
35.3827,865.0
35.5498,811.0
35.7169,799.0
35.8841,804.0
36.0512,835.0
36.2183,764.0
36.3854,749.0
36.5525,779.0
36.7196,755.0
36.8867,740.0
37.0538,751.0
37.221,733.0
37.3881,725.0
37.5552,688.0
37.7223,673.0
37.8894,684.0
38.0565,698.0
38.2236,678.0
38.3908,680.0
38.5579,676.0
38.725,718.0
38.8921,693.0
39.0592,718.0
39.2263,748.0
39.3934,792.0
39.5605,819.0
39.7277,965.0
39.8948,1006.0
40.0619,1211.0
40.229,1238.0
40.3961,1317.0
40.5632,1141.0
40.7303,998.0
40.8974,889.0
41.0646,781.0
41.2317,735.0
41.3988,725.0
41.5659,650.0
41.733,650.0
41.9001,656.0
42.0672,668.0
42.2343,658.0
42.4015,653.0
42.5686,621.0
42.7357,598.0
42.9028,611.0
43.0699,570.0
43.237,607.0
43.4041,542.0
43.5712,619.0
43.7384,556.0
43.9055,604.0
44.0726,559.0
44.2397,578.0
44.4068,568.0
44.5739,533.0
44.741,545.0
44.9081,521.0
45.0753,504.0
45.2424,496.0
45.4095,489.0
45.5766,528.0
45.7437,483.0
45.9108,522.0
46.0779,485.0
46.245,494.0
46.4122,497.0
46.5793,473.0
46.7464,533.0
46.9135,472.0
47.0806,507.0
47.2477,517.0
47.4148,504.0
47.5819,500.0
47.7491,573.0
47.9162,566.0
48.0833,647.0
48.2504,697.0
48.4175,846.0
48.5846,1079.0
48.7517,1180.0
48.9189,1289.0
49.086,1119.0
49.2531,886.0
49.4202,715.0
49.5873,636.0
49.7544,537.0
49.9215,465.0
50.0886,508.0
50.2558,494.0
50.4229,470.0
50.59,386.0
50.7571,430.0
50.9242,447.0
51.0913,385.0
51.2584,420.0
51.4255,383.0
51.5927,423.0
51.7598,397.0
51.9269,422.0
52.094,421.0
52.2611,470.0
52.4282,453.0
52.5953,432.0
52.7624,490.0
52.9296,438.0
53.0967,483.0
53.2638,532.0
53.4309,588.0
53.598,686.0
53.7651,809.0
53.9322,962.0
54.0993,1134.0
54.2665,1274.0
54.4336,1116.0
54.6007,1035.0
54.7678,871.0
54.9349,849.0
55.102,765.0
55.2691,698.0
55.4362,692.0
55.6034,740.0
55.7705,704.0
55.9376,696.0
56.1047,655.0
56.2718,678.0
56.4389,559.0
56.606,467.0
56.7731,509.0
56.9403,431.0
57.1074,425.0
57.2745,385.0
57.4416,395.0
57.6087,366.0
57.7758,385.0
57.9429,360.0
58.11,404.0
58.2772,370.0
58.4443,402.0
58.6114,447.0
58.7785,427.0
58.9456,420.0
59.1127,391.0
59.2798,406.0
59.447,374.0
59.6141,379.0
59.7812,367.0
59.9483,367.0
60.1154,368.0
60.2825,409.0
60.4496,430.0
60.6167,431.0
60.7839,456.0
60.951,444.0
61.1181,481.0
61.2852,550.0
61.4523,568.0
61.6194,571.0
61.7865,510.0
61.9536,491.0
62.1208,563.0
62.2879,482.0
62.455,500.0
62.6221,410.0
62.7892,391.0
62.9563,407.0
63.1234,352.0
63.2905,369.0
63.4577,358.0
63.6248,344.0
63.7919,323.0
63.959,305.0
64.1261,294.0
64.2932,346.0
64.4603,288.0
64.6274,283.0
64.7946,285.0
64.9617,303.0
65.1288,308.0
65.2959,311.0
65.463,299.0
65.6301,306.0
65.7972,280.0
65.9643,256.0
66.1315,256.0
66.2986,268.0
66.4657,257.0
66.6328,276.0
66.7999,274.0
66.967,295.0
67.1341,253.0
67.3012,275.0
67.4684,276.0
67.6355,280.0
67.8026,268.0
67.9697,258.0
68.1368,293.0
68.3039,239.0
68.471,274.0
68.6381,245.0
68.8053,287.0
68.9724,232.0
69.1395,283.0
69.3066,328.0
69.4737,358.0
69.6408,372.0
69.8079,354.0
69.975,393.0
69.9918,356.0