File: herald_visualization/XRD_Plotting/Figures/(Fe,Co,Ni,Cu)S2/CoS2.csv
2Theta (degrees),Intensity
27.9761,32.8467
32.4146,100.0
36.3666,42.0256
39.9783,37.3306
46.4977,51.1476
49.5013,1.22596
55.1432,90.3394
57.8204,15.8227
60.421,16.0009
62.9563,20.0156
67.8665,0.0115359
70.2562,1.61596
72.6107,0.894497
74.9353,13.6086
77.2347,11.9611
79.5134,6.45383
81.7754,3.01531
86.2646,12.6352
88.4988,0.932086