File: herald_visualization/XRD_Plotting/Figures/(Fe,Co,Ni,Cu)S2/CuS2.csv
2Theta (degrees),Intensity
26.7175,26.9813
30.9468,100.0
34.7088,25.228
38.1433,24.4214
44.333,50.6584
47.1796,1.70993
52.5171,71.8301
55.0448,15.2202
57.4967,12.7813
59.8836,15.5114
64.4955,0.388517
66.7345,2.58529
68.9364,1.33987
71.1062,15.9866
73.2482,10.125
75.3663,3.14774
77.4642,1.10768
81.6122,10.7734
83.6683,1.62067
85.7163,2.13507
87.7588,31.6803