File: herald_visualization/XRD_Plotting/Figures/(Fe,Co,Ni,Cu)S2/NiS2.csv
2Theta (degrees),Intensity
27.1556,85.8944
31.3973,96.5223
31.4574,98.4632
31.5179,100.0
35.2447,32.1962
35.2718,33.0845
35.34,32.0011
38.7438,30.731
38.7814,29.2097
38.8192,30.3932
45.0407,49.7182
45.0854,49.8421
45.1296,50.061
47.9543,1.50284
47.9862,1.32416
48.0178,1.7035
53.3503,81.855
53.4284,79.5735
53.507,77.6366
56.0077,45.8063
58.4278,14.1002
58.5475,14.2069
58.5571,14.6553
60.8766,1.92169
60.9037,15.3475
60.9214,16.0592
60.9754,1.77145
60.9937,1.60074
61.0206,15.7585
65.5247,0.109841
65.6623,0.134797
65.801,0.158646
67.826,0.882012
67.9108,1.22565
67.9443,1.02598
67.953,0.98901
67.9956,1.15653
68.0891,1.09656
70.0818,1.03094
70.2067,1.11008
70.3326,1.27406
72.3634,14.6452
72.4298,14.828
72.4955,15.0278
74.4945,5.35376
74.5273,5.1906
74.5921,5.5695
74.6573,5.21496
74.7232,5.58206
74.7556,5.39105
76.6765,0.0787593
76.7008,4.5408
76.773,4.36988
76.8215,0.101294
76.8948,0.0866295
76.9189,4.34626
78.9109,1.84199
78.9511,2.14086
78.991,1.73222
83.119,11.4675
83.2137,11.546
83.3092,11.5966
85.2586,1.25575
85.2749,1.15755
85.4562,1.40133
87.3213,1.37649
87.3762,0.186331
87.3846,0.137543
87.4948,1.64313
87.5022,1.53549
87.5576,0.190119
89.357,29.5523
89.545,29.4512
89.5455,12.3344
89.7346,29.3211