File: herald_visualization/XRD Plotting Scripts (Riley)/Figures/(FeMn)F3/241203-Fe0p75Mn0p25F3-ball_milled_24h-20-70deg-40min.csv
2Theta,Intensity
20.0084,5169.0
20.1755,5178.0
20.3426,5103.0
20.5097,5022.0
20.6768,4756.0
20.8439,4778.0
21.011,4858.0
21.1781,4674.0
21.3453,4764.0
21.5124,4598.0
21.6795,4590.0
21.8466,4625.0
22.0137,4417.0
22.1808,4396.0
22.3479,4363.0
22.515,4200.0
22.6822,4325.0
22.8493,4359.0
23.0164,4601.0
23.1835,5190.0
23.3506,7446.0
23.5177,8574.0
23.6848,6182.0
23.8519,5060.0
24.0191,4592.0
24.1862,4535.0
24.3533,4137.0
24.5204,3969.0
24.6875,3924.0
24.8546,4080.0
25.0217,3873.0
25.1888,3875.0
25.356,3790.0
25.5231,3799.0
25.6902,3847.0
25.8573,3863.0
26.0244,3826.0
26.1915,3719.0
26.3586,3768.0
26.5258,3814.0
26.6929,3638.0
26.86,3740.0
27.0271,3709.0
27.1942,3624.0
27.3613,3651.0
27.5284,3717.0
27.6955,3735.0
27.8627,3690.0
28.0298,3682.0
28.1969,3633.0
28.364,3716.0
28.5311,3756.0
28.6982,3639.0
28.8653,3572.0
29.0324,3504.0
29.1996,3554.0
29.3667,3507.0
29.5338,3509.0
29.7009,3694.0
29.868,3624.0
30.0351,3470.0
30.2022,3514.0
30.3693,3528.0
30.5365,3474.0
30.7036,3368.0
30.8707,3406.0
31.0378,3335.0
31.2049,3357.0
31.372,3462.0
31.5391,3374.0
31.7062,3348.0
31.8734,3449.0
32.0405,3525.0
32.2076,3378.0
32.3747,3508.0
32.5418,3365.0
32.7089,3439.0
32.876,3548.0
33.0431,3898.0
33.2103,3808.0
33.3774,3533.0
33.5445,3571.0
33.7116,3462.0
33.8787,3463.0
34.0458,3600.0
34.2129,3372.0
34.38,3395.0
34.5472,3404.0
34.7143,3340.0
34.8814,3159.0
35.0485,3415.0
35.2156,3321.0
35.3827,3245.0
35.5498,3241.0
35.7169,3306.0
35.8841,3127.0
36.0512,3177.0
36.2183,3218.0
36.3854,3224.0
36.5525,3167.0
36.7196,3152.0
36.8867,3183.0
37.0538,3295.0
37.221,2999.0
37.3881,3198.0
37.5552,3122.0
37.7223,3207.0
37.8894,3189.0
38.0565,3140.0
38.2236,3208.0
38.3908,3238.0
38.5579,3295.0
38.725,3238.0
38.8921,3213.0
39.0592,3202.0
39.2263,3185.0
39.3934,3184.0
39.5605,3286.0
39.7277,3587.0
39.8948,3602.0
40.0619,3436.0
40.229,3384.0
40.3961,3270.0
40.5632,3136.0
40.7303,3239.0
40.8974,3171.0
41.0646,3202.0
41.2317,3158.0
41.3988,3253.0
41.5659,3134.0
41.733,3158.0
41.9001,3142.0
42.0672,3052.0
42.2343,3215.0
42.4015,3125.0
42.5686,3198.0
42.7357,3117.0
42.9028,3137.0
43.0699,3084.0
43.237,3085.0
43.4041,3117.0
43.5712,3202.0
43.7384,3179.0
43.9055,3117.0
44.0726,3165.0
44.2397,3060.0
44.4068,3150.0
44.5739,3035.0
44.741,3006.0
44.9081,3098.0
45.0753,3070.0
45.2424,3087.0
45.4095,3130.0
45.5766,3127.0
45.7437,3093.0
45.9108,3174.0
46.0779,3170.0
46.245,3019.0
46.4122,3184.0
46.5793,3091.0
46.7464,3045.0
46.9135,3154.0
47.0806,3101.0
47.2477,2993.0
47.4148,3153.0
47.5819,3025.0
47.7491,3191.0
47.9162,3235.0
48.0833,3441.0
48.2504,3755.0
48.4175,4104.0
48.5846,3619.0
48.7517,3411.0
48.9189,3341.0
49.086,3210.0
49.2531,3223.0
49.4202,3113.0
49.5873,3067.0
49.7544,3125.0
49.9215,3152.0
50.0886,3093.0
50.2558,3060.0
50.4229,3034.0
50.59,2929.0
50.7571,2992.0
50.9242,2990.0
51.0913,3064.0
51.2584,3021.0
51.4255,2948.0
51.5927,3041.0
51.7598,3160.0
51.9269,3079.0
52.094,3027.0
52.2611,3039.0
52.4282,2992.0
52.5953,3003.0
52.7624,3071.0
52.9296,3034.0
53.0967,3200.0
53.2638,3208.0
53.4309,3277.0
53.598,3439.0
53.7651,3607.0
53.9322,3860.0
54.0993,3806.0
54.2665,3554.0
54.4336,3328.0
54.6007,3420.0
54.7678,3337.0
54.9349,3399.0
55.102,3307.0
55.2691,3527.0
55.4362,3427.0
55.6034,3212.0
55.7705,3178.0
55.9376,3019.0
56.1047,3137.0
56.2718,3098.0
56.4389,3046.0
56.606,3071.0
56.7731,3090.0
56.9403,3127.0
57.1074,3027.0
57.2745,3057.0
57.4416,3072.0
57.6087,3019.0
57.7758,2996.0
57.9429,3101.0
58.11,3032.0
58.2772,3051.0
58.4443,3161.0
58.6114,3046.0
58.7785,3117.0
58.9456,3131.0
59.1127,3018.0
59.2798,3101.0
59.447,3075.0
59.6141,2977.0
59.7812,3074.0
59.9483,2973.0
60.1154,3029.0
60.2825,3134.0
60.4496,3135.0
60.6167,3205.0
60.7839,3202.0
60.951,3257.0
61.1181,3166.0
61.2852,3248.0
61.4523,3167.0
61.6194,3061.0
61.7865,3200.0
61.9536,3176.0
62.1208,3209.0
62.2879,3052.0
62.455,3182.0
62.6221,3165.0
62.7892,3117.0
62.9563,3127.0
63.1234,2912.0
63.2905,2986.0
63.4577,3004.0
63.6248,3065.0
63.7919,3060.0
63.959,3104.0
64.1261,2989.0
64.2932,3041.0
64.4603,3075.0
64.6274,3032.0
64.7946,3039.0
64.9617,3030.0
65.1288,3058.0
65.2959,3027.0
65.463,2942.0
65.6301,3065.0
65.7972,3030.0
65.9643,3019.0
66.1315,3054.0
66.2986,2977.0
66.4657,2889.0
66.6328,2990.0
66.7999,3101.0
66.967,2966.0
67.1341,3073.0
67.3012,3019.0
67.4684,3002.0
67.6355,2988.0
67.8026,3032.0
67.9697,2894.0
68.1368,3028.0
68.3039,2986.0
68.471,3040.0
68.6381,3015.0
68.8053,3093.0
68.9724,3029.0
69.1395,3092.0
69.3066,3208.0
69.4737,3144.0
69.6408,3107.0
69.8079,3209.0
69.975,3118.0
69.9918,3178.0