File: herald_visualization/XRD Plotting Scripts (Riley)/Figures/Li2FeS2/250213_Li2FeS2_100min_20-70deg.csv
2Theta,Intensity
20.0084,4714.0
20.1755,4786.0
20.3426,4638.0
20.5097,4622.0
20.6768,4529.0
20.8439,4521.0
21.011,4308.0
21.1781,4260.0
21.3453,4276.0
21.5124,4138.0
21.6795,4002.0
21.8466,3988.0
22.0137,3893.0
22.1808,3866.0
22.3479,3829.0
22.515,3588.0
22.6822,3578.0
22.8493,3711.0
23.0164,3479.0
23.1835,3489.0
23.3506,3391.0
23.5177,3482.0
23.6848,3217.0
23.8519,3293.0
24.0191,3199.0
24.1862,3208.0
24.3533,3211.0
24.5204,3176.0
24.6875,3159.0
24.8546,3155.0
25.0217,3046.0
25.1888,3025.0
25.356,3054.0
25.5231,3026.0
25.6902,3064.0
25.8573,3021.0
26.0244,3029.0
26.1915,3036.0
26.3586,3013.0
26.5258,3386.0
26.6929,4186.0
26.86,3795.0
27.0271,3020.0
27.1942,2905.0
27.3613,2852.0
27.5284,2814.0
27.6955,2721.0
27.8627,2633.0
28.0298,2666.0
28.1969,2582.0
28.364,2638.0
28.5311,2612.0
28.6982,2631.0
28.8653,2650.0
29.0324,2514.0
29.1996,2514.0
29.3667,2496.0
29.5338,2489.0
29.7009,2417.0
29.868,2455.0
30.0351,2416.0
30.2022,2502.0
30.3693,2325.0
30.5365,2447.0
30.7036,2369.0
30.8707,2536.0
31.0378,2712.0
31.2049,2488.0
31.372,2301.0
31.5391,2248.0
31.7062,2281.0
31.8734,2303.0
32.0405,2206.0
32.2076,2239.0
32.3747,2164.0
32.5418,2194.0
32.7089,2061.0
32.876,2205.0
33.0431,2227.0
33.2103,2117.0
33.3774,2087.0
33.5445,2138.0
33.7116,2086.0
33.8787,2020.0
34.0458,2118.0
34.2129,2049.0
34.38,2130.0
34.5472,1983.0
34.7143,2029.0
34.8814,1935.0
35.0485,2059.0
35.2156,2002.0
35.3827,2069.0
35.5498,1983.0
35.7169,2061.0
35.8841,1986.0
36.0512,2000.0
36.2183,1880.0
36.3854,1944.0
36.5525,1950.0
36.7196,2049.0
36.8867,1942.0
37.0538,1959.0
37.221,1908.0
37.3881,1934.0
37.5552,1962.0
37.7223,1936.0
37.8894,1915.0
38.0565,1861.0
38.2236,1973.0
38.3908,1928.0
38.5579,1848.0
38.725,1834.0
38.8921,1821.0
39.0592,1810.0
39.2263,1945.0
39.3934,1876.0
39.5605,1913.0
39.7277,1893.0
39.8948,1882.0
40.0619,1897.0
40.229,1810.0
40.3961,1865.0
40.5632,1815.0
40.7303,1811.0
40.8974,1810.0
41.0646,1849.0
41.2317,1791.0
41.3988,1810.0
41.5659,1850.0
41.733,1800.0
41.9001,1812.0
42.0672,1918.0
42.2343,1791.0
42.4015,1816.0
42.5686,1902.0
42.7357,1798.0
42.9028,1887.0
43.0699,1935.0
43.237,1911.0
43.4041,1957.0
43.5712,1928.0
43.7384,1892.0
43.9055,1966.0
44.0726,2240.0
44.2397,3228.0
44.4068,7215.0
44.5739,4829.0
44.741,2584.0
44.9081,2083.0
45.0753,1867.0
45.2424,1780.0
45.4095,1782.0
45.5766,1740.0
45.7437,1758.0
45.9108,1747.0
46.0779,1745.0
46.245,1749.0
46.4122,1707.0
46.5793,1693.0
46.7464,1714.0
46.9135,1647.0
47.0806,1719.0
47.2477,1687.0
47.4148,1763.0
47.5819,1746.0
47.7491,1720.0
47.9162,1717.0
48.0833,1703.0
48.2504,1770.0
48.4175,1702.0
48.5846,1635.0
48.7517,1664.0
48.9189,1763.0
49.086,1678.0
49.2531,1701.0
49.4202,1686.0
49.5873,1690.0
49.7544,1677.0
49.9215,1740.0
50.0886,1688.0
50.2558,1701.0
50.4229,1723.0
50.59,1615.0
50.7571,1635.0
50.9242,1716.0
51.0913,1635.0
51.2584,1641.0
51.4255,1728.0
51.5927,1581.0
51.7598,1681.0
51.9269,1700.0
52.094,1754.0
52.2611,1674.0
52.4282,1737.0
52.5953,1737.0
52.7624,1976.0
52.9296,2078.0
53.0967,1825.0
53.2638,1801.0
53.4309,1682.0
53.598,1713.0
53.7651,1675.0
53.9322,1637.0
54.0993,1655.0
54.2665,1688.0
54.4336,1648.0
54.6007,1663.0
54.7678,1693.0
54.9349,1578.0
55.102,1642.0
55.2691,1716.0
55.4362,1721.0
55.6034,1689.0
55.7705,1714.0
55.9376,1677.0
56.1047,1645.0
56.2718,1714.0
56.4389,1707.0
56.606,1714.0
56.7731,1749.0
56.9403,1658.0
57.1074,1688.0
57.2745,1599.0
57.4416,1732.0
57.6087,1614.0
57.7758,1726.0
57.9429,1597.0
58.11,1651.0
58.2772,1628.0
58.4443,1678.0
58.6114,1588.0
58.7785,1614.0
58.9456,1643.0
59.1127,1626.0
59.2798,1654.0
59.447,1666.0
59.6141,1657.0
59.7812,1576.0
59.9483,1579.0
60.1154,1600.0
60.2825,1661.0
60.4496,1593.0
60.6167,1598.0
60.7839,1588.0
60.951,1603.0
61.1181,1589.0
61.2852,1622.0
61.4523,1629.0
61.6194,1643.0
61.7865,1643.0
61.9536,1673.0
62.1208,1603.0
62.2879,1638.0
62.455,1624.0
62.6221,1671.0
62.7892,1600.0
62.9563,1604.0
63.1234,1635.0
63.2905,1750.0
63.4577,1639.0
63.6248,1673.0
63.7919,1663.0
63.959,1703.0
64.1261,1611.0
64.2932,1704.0
64.4603,1744.0
64.6274,1891.0
64.7946,2093.0
64.9617,2051.0
65.1288,1818.0
65.2959,1697.0
65.463,1751.0
65.6301,1647.0
65.7972,1698.0
65.9643,1597.0
66.1315,1550.0
66.2986,1615.0
66.4657,1636.0
66.6328,1620.0
66.7999,1588.0
66.967,1690.0
67.1341,1637.0
67.3012,1613.0
67.4684,1610.0
67.6355,1573.0
67.8026,1623.0
67.9697,1595.0
68.1368,1591.0
68.3039,1576.0
68.471,1579.0
68.6381,1643.0
68.8053,1595.0
68.9724,1631.0
69.1395,1524.0
69.3066,1638.0
69.4737,1628.0
69.6408,1608.0
69.8079,1624.0
69.975,1629.0
69.9918,1634.0