File: herald_visualization/XRD Plotting Scripts (Riley)/Figures/Li2FeS2/Li2S.csv
2Theta (degrees),Intensity
27.2403,100.0
31.5563,23.4057
45.2308,55.095
53.6051,36.0694
56.1943,4.51118
65.889,8.42164
72.6865,14.1911
74.8925,5.95001
83.5257,17.4013
89.8939,11.8516